Time [ s]	Intensity
0.00000	851.8
0.00153	836.1
0.00305	796.4
0.00458	826.6
0.00611	814.3
0.00764	817.1
0.00916	802.8
0.01069	811.6
0.01222	844.8
0.01375	816.4
0.01527	807.7
0.01680	798.9
0.01833	808.4
0.01985	799.6
0.02138	818.8
0.02291	796.5
0.02444	780.8
0.02596	796.7
0.02749	782.1
0.02902	815.1
0.03055	781.7
0.03207	774.9
0.03360	792.1
0.03513	774.4
0.03665	802.7
0.03818	811.5
0.03971	779.4
0.04124	763.4
0.04276	795.0
0.04429	792.0
0.04582	792.9
0.04735	778.5
0.04887	773.4
0.05040	774.2
0.05193	771.3
0.05345	781.7
0.05498	780.9
0.05651	785.5
0.05804	772.8
0.05956	774.5
0.06109	779.5
0.06262	765.6
0.06415	775.0
0.06567	762.8
0.06720	771.8
0.06873	759.3
0.07025	781.7
0.07178	777.1
0.07331	749.0
0.07484	779.6
0.07636	757.0
0.07789	775.5
0.07942	766.0
0.08095	776.9
0.08247	754.9
0.08400	747.1
0.08553	767.9
0.08705	730.0
0.08858	761.7
0.09011	783.6
0.09164	761.0
0.09316	789.9
0.09469	763.3
0.09622	774.6
0.09775	761.0
0.09927	726.7
0.10080	782.1
0.10233	763.2
0.10385	765.5
0.10538	768.4
0.10691	768.0
0.10844	768.5
0.10996	759.3
0.11149	752.3
0.11302	761.2
0.11455	754.5
0.11607	738.0
0.11760	763.7
0.11913	756.4
0.12065	757.3
0.12218	766.1
0.12371	736.2
0.12524	772.7
0.12676	760.9
0.12829	774.9
0.12982	767.7
0.13135	755.3
0.13287	753.4
0.13440	746.4
0.13593	740.3
0.13745	763.1
0.13898	750.6
0.14051	756.1
0.14204	751.8
0.14356	748.9
0.14509	759.6
0.14662	745.6
0.14815	749.1
0.14967	752.4
0.15120	738.9
0.15273	745.0
0.15425	732.6
0.15578	732.5
0.15731	737.2
0.15884	732.6
0.16036	718.5
0.16189	738.7
0.16342	744.7
0.16495	739.4
0.16647	746.7
0.16800	720.1
0.16953	740.2
0.17105	745.1
0.17258	742.4
0.17411	732.6
0.17564	708.9
0.17716	743.1
0.17869	746.8
0.18022	724.8
0.18175	734.7
0.18327	746.4
0.18480	716.7
0.18633	727.7
0.18785	750.1
0.18938	731.3
0.19091	732.0
0.19244	738.1
0.19396	746.9
0.19549	748.2
0.19702	735.4
0.19855	746.4
0.20007	728.3
0.20160	718.8
0.20313	719.9
0.20465	733.5
0.20618	756.9
0.20771	720.2
0.20924	728.3
0.21076	725.1
0.21229	729.7
0.21382	721.3
0.21535	711.5
0.21687	732.9
0.21840	736.9
0.21993	737.3
0.22145	709.6
0.22298	721.2
0.22451	739.7
0.22604	717.1
0.22756	736.4
0.22909	732.9
0.23062	744.9
0.23215	743.0
0.23367	713.5
0.23520	742.1
0.23673	711.5
0.23825	721.8
0.23978	729.7
0.24131	733.0
0.24284	738.5
0.24436	736.2
0.24589	706.2
0.24742	708.3
0.24895	714.6
0.25047	743.9
0.25200	723.2
0.25353	717.5
0.25505	725.2
0.25658	710.9
0.25811	714.0
0.25964	721.4
0.26116	728.6
0.26269	702.2
0.26422	724.8
0.26575	715.6
0.26727	730.3
0.26880	726.2
0.27033	726.5
0.27185	729.7
0.27338	736.1
0.27491	738.5
0.27644	727.8
0.27796	720.6
0.27949	729.3
0.28102	738.8
0.28255	755.0
0.28407	712.3
0.28560	721.7
0.28713	724.2
0.28865	714.2
0.29018	713.8
0.29171	730.4
0.29324	740.9
0.29476	721.4
0.29629	708.4
0.29782	739.3
0.29935	715.2
0.30087	705.1
0.30240	728.6
0.30393	719.7
0.30545	726.0
0.30698	731.8
0.30851	713.2
0.31004	726.0
0.31156	717.6
0.31309	721.8
0.31462	707.7
0.31615	725.1
0.31767	710.3
0.31920	704.1
0.32073	709.2
0.32225	726.9
0.32378	721.1
0.32531	705.5
0.32684	714.1
0.32836	688.3
0.32989	703.5
0.33142	720.5
0.33295	697.3
0.33447	722.7
0.33600	713.2
0.33753	714.7
0.33905	700.5
0.34058	714.4
0.34211	711.6
0.34364	713.8
0.34516	713.9
0.34669	706.7
0.34822	711.7
0.34975	716.4
0.35127	703.5
0.35280	706.4
0.35433	702.4
0.35585	690.2
0.35738	715.1
0.35891	716.5
0.36044	707.4
0.36196	711.6
0.36349	696.3
0.36502	702.2
0.36655	695.2
0.36807	690.0
0.36960	706.7
0.37113	730.3
0.37265	705.8
0.37418	700.3
0.37571	711.9
0.37724	695.8
0.37876	722.0
0.38029	708.5
0.38182	684.4
0.38335	704.6
0.38487	709.0
0.38640	684.0
0.38793	709.3
0.38945	711.5
0.39098	700.7
0.39251	692.5
0.39404	712.5
0.39556	712.8
0.39709	714.9
0.39862	707.5
0.40015	709.5
0.40167	729.7
0.40320	705.6
0.40473	693.8
0.40625	717.7
0.40778	699.8
0.40931	707.6
0.41084	697.3
0.41236	701.6
0.41389	688.9
0.41542	705.0
0.41695	715.3
0.41847	704.4
0.42000	696.3
0.42153	705.7
0.42305	704.0
0.42458	673.3
0.42611	682.6
0.42764	697.0
0.42916	693.4
0.43069	702.7
0.43222	708.6
0.43375	709.9
0.43527	701.8
0.43680	706.2
0.43833	712.2
0.43985	697.2
0.44138	707.5
0.44291	700.5
0.44444	692.5
0.44596	720.3
0.44749	679.7
0.44902	684.8
0.45055	671.0
0.45207	709.6
0.45360	700.7
0.45513	696.6
0.45665	690.4
0.45818	690.1
0.45971	701.1
0.46124	687.7
0.46276	683.1
0.46429	709.7
0.46582	717.7
0.46735	707.7
0.46887	701.1
0.47040	708.7
0.47193	694.1
0.47345	689.6
0.47498	706.6
0.47651	695.2
0.47804	705.3
0.47956	702.0
0.48109	690.3
0.48262	683.1
0.48415	704.4
0.48567	685.7
0.48720	693.7
0.48873	692.2
0.49025	713.1
0.49178	693.5
0.49331	685.1
0.49484	681.4
0.49636	703.5
0.49789	708.3
0.49942	694.0
0.50095	707.0
0.50247	704.2
0.50400	686.0
0.50553	689.2
0.50705	703.2
0.50858	679.3
0.51011	704.2
0.51164	692.3
0.51316	693.7
0.51469	698.1
0.51622	678.6
0.51775	691.8
0.51927	694.3
0.52080	685.1
0.52233	679.4
0.52385	692.9
0.52538	684.4
0.52691	697.9
0.52844	686.3
0.52996	711.8
0.53149	681.7
0.53302	707.7
0.53455	702.1
0.53607	701.5
0.53760	703.2
0.53913	676.6
0.54065	698.3
0.54218	687.8
0.54371	680.0
0.54524	688.5
0.54676	687.2
0.54829	702.3
0.54982	705.7
0.55135	686.7
0.55287	680.4
0.55440	686.0
0.55593	681.3
0.55745	687.4
0.55898	703.8
0.56051	684.6
0.56204	703.4
0.56356	679.8
0.56509	687.5
0.56662	684.4
0.56815	694.9
0.56967	719.5
0.57120	698.9
0.57273	673.1
0.57425	683.3
0.57578	681.0
0.57731	672.2
0.57884	709.5
0.58036	701.0
0.58189	705.0
0.58342	677.4
0.58495	689.3
0.58647	698.5
0.58800	685.7
0.58953	700.4
0.59105	674.9
0.59258	679.8
0.59411	707.3
0.59564	686.4
0.59716	691.9
0.59869	684.8
0.60022	685.7
0.60175	682.3
0.60327	676.5
0.60480	691.5
0.60633	680.5
0.60785	688.2
0.60938	683.6
0.61091	723.9
0.61244	702.1
0.61396	705.7
0.61549	714.5
0.61702	716.0
0.61855	724.6
0.62007	744.3
0.62160	754.9
0.62313	753.7
0.62465	784.5
0.62618	752.8
0.62771	782.4
0.62924	776.9
0.63076	808.9
0.63229	819.8
0.63382	865.9
0.63535	869.6
0.63687	849.1
0.63840	923.1
0.63993	927.6
0.64145	962.3
0.64298	971.1
0.64451	995.1
0.64604	1008.1
0.64756	1044.0
0.64909	1096.1
0.65062	1138.9
0.65215	1154.7
0.65367	1197.3
0.65520	1223.4
0.65673	1246.7
0.65825	1297.1
0.65978	1338.6
0.66131	1371.2
0.66284	1380.0
0.66436	1397.8
0.66589	1413.9
0.66742	1447.1
0.66895	1491.7
0.67047	1466.2
0.67200	1507.5
0.67353	1491.4
0.67505	1508.6
0.67658	1489.0
0.67811	1526.8
0.67964	1514.3
0.68116	1556.6
0.68269	1539.8
0.68422	1572.9
0.68575	1599.3
0.68727	1576.3
0.68880	1615.3
0.69033	1615.6
0.69185	1619.8
0.69338	1641.2
0.69491	1659.0
0.69644	1623.1
0.69796	1660.0
0.69949	1664.1
0.70102	1648.0
0.70255	1625.0
0.70407	1623.5
0.70560	1659.6
0.70713	1662.9
0.70865	1624.3
0.71018	1609.6
0.71171	1634.4
0.71324	1576.9
0.71476	1684.8
0.71629	1601.1
0.71782	1627.1
0.71935	1612.7
0.72087	1611.3
0.72240	1642.0
0.72393	1632.9
0.72545	1629.8
0.72698	1615.0
0.72851	1631.2
0.73004	1594.5
0.73156	1635.9
0.73309	1597.6
0.73462	1590.8
0.73615	1572.2
0.73767	1531.2
0.73920	1588.6
0.74073	1553.0
0.74225	1564.5
0.74378	1557.7
0.74531	1545.3
0.74684	1566.8
0.74836	1565.1
0.74989	1536.3
0.75142	1531.6
0.75295	1492.3
0.75447	1508.9
0.75600	1521.6
0.75753	1519.2
0.75905	1525.8
0.76058	1473.6
0.76211	1505.3
0.76364	1490.7
0.76516	1470.3
0.76669	1529.3
0.76822	1498.9
0.76975	1533.2
0.77127	1535.7
0.77280	1532.1
0.77433	1466.1
0.77585	1483.2
0.77738	1456.2
0.77891	1462.6
0.78044	1449.8
0.78196	1464.7
0.78349	1435.6
0.78502	1438.8
0.78655	1448.9
0.78807	1407.3
0.78960	1425.5
0.79113	1374.6
0.79265	1415.7
0.79418	1374.3
0.79571	1401.8
0.79724	1386.0
0.79876	1366.0
0.80029	1330.7
0.80182	1325.6
0.80335	1328.4
0.80487	1341.1
0.80640	1332.9
0.80793	1348.7
0.80945	1331.4
0.81098	1324.0
0.81251	1330.2
0.81404	1271.9
0.81556	1315.8
0.81709	1320.0
0.81862	1294.3
0.82015	1319.6
0.82167	1279.5
0.82320	1286.7
0.82473	1281.0
0.82625	1292.4
0.82778	1292.9
0.82931	1267.8
0.83084	1257.1
0.83236	1260.0
0.83389	1297.7
0.83542	1253.8
0.83695	1249.1
0.83847	1250.6
0.84000	1241.1
0.84153	1241.1
0.84305	1237.3
0.84458	1243.3
0.84611	1200.4
0.84764	1215.1
0.84916	1207.1
0.85069	1220.1
0.85222	1178.2
0.85375	1199.3
0.85527	1188.8
0.85680	1179.9
0.85833	1144.9
0.85985	1155.8
0.86138	1180.4
0.86291	1129.7
0.86444	1140.1
0.86596	1151.3
0.86749	1168.6
0.86902	1145.0
0.87055	1135.5
0.87207	1117.8
0.87360	1128.8
0.87513	1124.8
0.87665	1129.0
0.87818	1118.2
0.87971	1105.3
0.88124	1079.9
0.88276	1131.5
0.88429	1079.0
0.88582	1102.2
0.88735	1077.3
0.88887	1069.8
0.89040	1062.1
0.89193	1073.8
0.89345	1086.8
0.89498	1094.2
0.89651	1049.4
0.89804	1065.4
0.89956	1046.4
0.90109	1021.9
0.90262	1041.7
0.90415	1037.2
0.90567	1045.7
0.90720	1040.0
0.90873	1048.8
0.91025	1031.4
0.91178	1048.3
0.91331	1033.8
0.91484	1039.3
0.91636	1004.4
0.91789	1035.2
0.91942	1008.3
0.92095	1018.1
0.92247	1011.4
0.92400	1024.3
0.92553	1003.4
0.92705	976.8
0.92858	1005.4
0.93011	998.1
0.93164	991.8
0.93316	980.7
0.93469	997.5
0.93622	978.8
0.93775	985.3
0.93927	972.0
0.94080	963.7
0.94233	918.0
0.94385	958.9
0.94538	945.0
0.94691	941.6
0.94844	946.0
0.94996	949.2
0.95149	926.1
0.95302	947.6
0.95455	926.2
0.95607	905.3
0.95760	914.5
0.95913	925.5
0.96065	914.4
0.96218	921.8
0.96371	899.8
0.96524	892.4
0.96676	904.9
0.96829	910.2
0.96982	886.2
0.97135	915.9
0.97287	897.8
0.97440	893.4
0.97593	882.2
0.97745	875.5
0.97898	873.8
0.98051	880.4
0.98204	889.3
0.98356	891.5
0.98509	921.6
0.98662	888.8
0.98815	872.2
0.98967	880.8
0.99120	836.6
0.99273	857.2
0.99425	871.6
0.99578	850.6
0.99731	819.8
0.99884	856.3
1.00036	866.9
1.00189	873.3
1.00342	847.7
1.00495	850.5
1.00647	858.3
1.00800	846.0
1.00953	866.5
1.01105	875.0
1.01258	852.1
1.01411	838.2
1.01564	839.8
1.01716	838.9
1.01869	823.7
1.02022	846.7
1.02175	829.6
1.02327	805.8
1.02480	842.2
1.02633	822.8
1.02785	819.9
1.02938	806.3
1.03091	828.2
1.03244	841.5
1.03396	804.0
1.03549	822.0
1.03702	825.5
1.03855	814.3
1.04007	806.6
1.04160	812.0
1.04313	822.7
1.04465	833.9
1.04618	819.7
1.04771	800.9
1.04924	820.3
1.05076	828.1
1.05229	809.3
1.05382	808.9
1.05535	810.1
1.05687	792.9
1.05840	817.2
1.05993	812.2
1.06145	804.0
1.06298	816.3
1.06451	770.6
1.06604	819.0
1.06756	801.8
1.06909	805.2
1.07062	802.0
1.07215	780.9
1.07367	807.8
1.07520	810.1
1.07673	765.7
1.07825	774.4
1.07978	807.6
1.08131	774.3
1.08284	779.1
1.08436	773.6
1.08589	786.4
1.08742	777.3
1.08895	789.0
1.09047	792.8
1.09200	788.8
1.09353	774.1
1.09505	785.7
1.09658	796.8
1.09811	759.2
1.09964	782.2
1.10116	779.1
1.10269	781.5
1.10422	760.4
1.10575	761.4
1.10727	772.4
1.10880	754.9
1.11033	771.9
1.11185	763.5
1.11338	790.0
1.11491	775.1
1.11644	753.4
1.11796	776.1
1.11949	756.6
1.12102	780.1
1.12255	769.8
1.12407	767.1
1.12560	765.5
1.12713	774.7
1.12865	769.8
1.13018	752.5
1.13171	756.9
1.13324	750.6
1.13476	757.1
1.13629	752.1
1.13782	768.5
1.13935	777.6
1.14087	745.0
1.14240	743.8
1.14393	772.3
1.14545	770.8
1.14698	769.4
1.14851	785.5
1.15004	764.5
1.15156	770.6
1.15309	777.2
1.15462	764.4
1.15615	759.2
1.15767	781.8
1.15920	758.8
1.16073	746.6
1.16225	775.5
1.16378	751.2
1.16531	756.7
1.16684	750.0
1.16836	735.1
1.16989	779.2
1.17142	749.1
1.17295	777.2
1.17447	750.3
1.17600	746.9
1.17753	753.8
1.17905	756.2
1.18058	759.2
1.18211	754.9
1.18364	756.7
1.18516	750.2
1.18669	753.4
1.18822	742.0
1.18975	743.9
1.19127	765.3
1.19280	751.0
1.19433	739.9
1.19585	754.0
1.19738	736.1
1.19891	727.4
1.20044	752.3
1.20196	766.1
1.20349	756.3
1.20502	749.4
1.20655	766.9
1.20807	748.3
1.20960	761.5
1.21113	739.8
1.21265	770.0
1.21418	751.0
1.21571	753.2
1.21724	760.4
1.21876	752.4
1.22029	754.3
1.22182	742.2
1.22335	751.0
1.22487	754.8
1.22640	759.3
1.22793	739.8
1.22945	739.7
1.23098	758.8
1.23251	753.7
1.23404	734.0
1.23556	745.5
1.23709	763.7
1.23862	724.2
1.24015	741.5
1.24167	721.8
1.24320	743.2
1.24473	739.3
1.24625	743.4
1.24778	751.3
1.24931	728.6
1.25084	734.1
1.25236	748.1
1.25389	729.3
1.25542	735.8
1.25695	735.2
1.25847	768.5
1.26000	729.8
1.26153	744.2
1.26305	717.1
1.26458	736.3
1.26611	752.3
1.26764	743.6
1.26916	728.4
1.27069	743.0
1.27222	716.1
1.27375	737.0
1.27527	742.9
1.27680	726.0
1.27833	759.8
1.27985	739.8
1.28138	730.8
1.28291	725.4
1.28444	740.4
1.28596	722.1
1.28749	725.5
1.28902	718.9
1.29055	728.8
1.29207	742.0
1.29360	727.3
1.29513	716.3
1.29665	708.5
1.29818	734.6
1.29971	722.3
1.30124	716.9
1.30276	722.6
1.30429	740.6
1.30582	726.0
1.30735	752.1
1.30887	732.8
1.31040	731.1
1.31193	709.2
1.31345	731.5
1.31498	730.3
1.31651	721.5
1.31804	719.0
1.31956	692.9
1.32109	708.2
1.32262	718.7
1.32415	698.7
1.32567	726.5
1.32720	732.1
1.32873	714.0
1.33025	727.9
1.33178	731.9
1.33331	728.5
1.33484	728.8
1.33636	717.2
1.33789	723.8
1.33942	724.2
1.34095	725.3
1.34247	711.0
1.34400	690.1
1.34553	734.9
1.34705	711.3
1.34858	739.5
1.35011	713.5
1.35164	703.8
1.35316	704.1
1.35469	703.5
1.35622	715.7
1.35775	697.9
1.35927	712.1
1.36080	695.4
1.36233	702.5
1.36385	706.0
1.36538	721.2
1.36691	732.1
1.36844	708.9
1.36996	714.1
1.37149	711.1
1.37302	713.4
1.37455	699.1
1.37607	693.1
1.37760	711.6
1.37913	707.0
1.38065	712.8
1.38218	700.9
1.38371	697.2
1.38524	696.6
1.38676	704.8
1.38829	704.5
1.38982	720.5
1.39135	706.6
1.39287	714.4
1.39440	712.5
1.39593	716.4
1.39745	723.7
1.39898	719.6
1.40051	728.8
1.40204	703.6
1.40356	721.4
1.40509	699.0
1.40662	711.1
1.40815	712.1
1.40967	696.9
1.41120	720.2
1.41273	721.1
1.41425	713.6
1.41578	702.0
1.41731	729.4
1.41884	720.1
1.42036	696.6
1.42189	712.9
1.42342	713.4
1.42495	719.8
1.42647	711.7
1.42800	690.4
1.42953	698.0
1.43105	716.3
1.43258	710.9
1.43411	732.1
1.43564	700.4
1.43716	700.3
1.43869	706.7
1.44022	701.6
1.44175	698.9
1.44327	711.3
1.44480	703.7
1.44633	698.9
1.44785	722.0
1.44938	711.6
1.45091	725.3
1.45244	718.4
1.45396	709.8
1.45549	699.1
1.45702	720.3
1.45855	693.0
1.46007	715.8
1.46160	692.3
1.46313	688.2
1.46465	682.4
1.46618	707.4
1.46771	716.7
1.46924	676.6
1.47076	706.3
1.47229	706.5
1.47382	717.9
1.47535	709.3
1.47687	701.8
1.47840	686.4
1.47993	711.8
1.48145	707.4
1.48298	693.9
1.48451	703.1
1.48604	687.0
1.48756	708.3
1.48909	692.9
1.49062	695.7
1.49215	697.3
1.49367	706.4
1.49520	693.4
1.49673	720.7
1.49825	700.1
1.49978	703.2
1.50131	702.1
1.50284	697.9
1.50436	703.6
1.50589	690.1
1.50742	709.6
1.50895	693.6
1.51047	705.3
1.51200	709.6
1.51353	696.9
1.51505	707.3
1.51658	699.7
1.51811	711.2
1.51964	709.9
1.52116	714.2
1.52269	710.5
1.52422	721.7
1.52575	700.6
1.52727	696.3
1.52880	703.5
1.53033	701.5
1.53185	693.9
1.53338	700.8
1.53491	695.1
1.53644	685.9
1.53796	694.7
1.53949	705.4
1.54102	696.3
1.54255	686.8
1.54407	709.5
1.54560	706.2
1.54713	716.5
1.54865	687.8
1.55018	695.3
1.55171	696.3
1.55324	704.3
1.55476	699.5
1.55629	690.9
1.55782	671.8
1.55935	698.8
1.56087	706.2
1.56240	700.2
1.56393	696.7
1.56545	713.2
1.56698	711.8
1.56851	698.0
1.57004	706.0
1.57156	685.8
1.57309	695.0
1.57462	690.2
1.57615	701.8
1.57767	701.8
1.57920	704.9
1.58073	697.4
1.58225	692.2
1.58378	685.0
1.58531	699.4
1.58684	692.1
1.58836	693.6
1.58989	686.0
1.59142	697.4
1.59295	704.2
1.59447	683.4
1.59600	716.3
1.59753	709.8
1.59905	708.6
1.60058	716.4
1.60211	710.5
1.60364	713.6
1.60516	695.2
1.60669	690.3
1.60822	701.1
1.60975	716.0
1.61127	692.6
1.61280	681.7
1.61433	705.0
1.61585	702.3
1.61738	695.8
1.61891	710.8
1.62044	692.9
1.62196	707.9
1.62349	694.1
1.62502	708.5
1.62655	680.1
1.62807	694.0
1.62960	703.9
1.63113	675.7
1.63265	676.1
1.63418	686.8
1.63571	700.1
1.63724	713.0
1.63876	719.3
1.64029	694.6
1.64182	703.3
1.64335	693.1
1.64487	696.7
1.64640	699.0
1.64793	701.5
1.64945	704.8
1.65098	702.1
1.65251	698.7
1.65404	681.9
1.65556	697.2
1.65709	691.6
1.65862	691.6
1.66015	686.2
1.66167	700.8
1.66320	700.9
1.66473	712.0
1.66625	686.3
1.66778	701.7
1.66931	688.3
1.67084	703.0
1.67236	704.6
1.67389	695.1
1.67542	689.8
1.67695	699.3
1.67847	702.7
1.68000	720.3
1.68153	703.8
1.68305	729.9
1.68458	729.5
1.68611	767.6
1.68764	755.2
1.68916	745.5
1.69069	775.7
1.69222	792.5
1.69375	820.3
1.69527	861.5
1.69680	849.4
1.69833	876.6
1.69985	876.4
1.70138	901.9
1.70291	909.8
1.70444	932.9
1.70596	961.2
1.70749	948.2
1.70902	930.2
1.71055	951.5
1.71207	999.4
1.71360	987.4
1.71513	953.5
1.71665	1005.6
1.71818	1050.1
1.71971	1062.9
1.72124	1094.4
1.72276	1119.8
1.72429	1113.4
1.72582	1152.7
1.72735	1153.8
1.72887	1175.3
1.73040	1198.5
1.73193	1232.5
1.73345	1222.1
1.73498	1245.7
1.73651	1234.0
1.73804	1285.4
1.73956	1272.9
1.74109	1291.6
1.74262	1279.4
1.74415	1339.7
1.74567	1351.7
1.74720	1355.6
1.74873	1356.8
1.75025	1405.3
1.75178	1407.7
1.75331	1396.0
1.75484	1422.5
1.75636	1400.0
1.75789	1389.8
1.75942	1435.6
1.76095	1392.5
1.76247	1459.3
1.76400	1445.1
1.76553	1405.8
1.76705	1454.2
1.76858	1482.8
1.77011	1520.3
1.77164	1546.5
1.77316	1537.8
1.77469	1543.7
1.77622	1483.7
1.77775	1525.9
1.77927	1533.9
1.78080	1553.8
1.78233	1511.8
1.78385	1498.6
1.78538	1574.5
1.78691	1542.3
1.78844	1559.0
1.78996	1567.4
1.79149	1519.7
1.79302	1536.4
1.79455	1541.6
1.79607	1546.8
1.79760	1526.2
1.79913	1439.1
1.80065	1538.5
1.80218	1536.1
1.80371	1509.2
1.80524	1476.3
1.80676	1525.6
1.80829	1465.5
1.80982	1482.9
1.81135	1489.1
1.81287	1514.8
1.81440	1495.9
1.81593	1460.1
1.81745	1453.5
1.81898	1466.4
1.82051	1491.0
1.82204	1400.3
1.82356	1432.7
1.82509	1413.8
1.82662	1407.3
1.82815	1411.0
1.82967	1429.6
1.83120	1383.1
1.83273	1414.4
1.83425	1397.4
1.83578	1394.6
1.83731	1386.8
1.83884	1379.8
1.84036	1358.3
1.84189	1366.2
1.84342	1377.4
1.84495	1379.5
1.84647	1389.3
1.84800	1380.0
1.84953	1347.4
1.85105	1375.3
1.85258	1385.1
1.85411	1327.6
1.85564	1332.4
1.85716	1351.3
1.85869	1352.0
1.86022	1335.3
1.86175	1337.8
1.86327	1377.3
1.86480	1307.2
1.86633	1329.5
1.86785	1329.0
1.86938	1303.7
1.87091	1293.8
1.87244	1269.8
1.87396	1249.8
1.87549	1303.8
1.87702	1296.9
1.87855	1263.6
1.88007	1217.4
1.88160	1208.7
1.88313	1244.7
1.88465	1232.4
1.88618	1211.7
1.88771	1224.1
1.88924	1207.4
1.89076	1257.3
1.89229	1186.4
1.89382	1191.9
1.89535	1223.1
1.89687	1210.5
1.89840	1129.9
1.89993	1163.5
1.90145	1141.1
1.90298	1154.0
1.90451	1197.2
1.90604	1151.0
1.90756	1136.8
1.90909	1155.6
1.91062	1125.2
1.91215	1150.6
1.91367	1107.7
1.91520	1121.2
1.91673	1108.1
1.91825	1116.1
1.91978	1111.7
1.92131	1077.6
1.92284	1080.6
1.92436	1075.9
1.92589	1077.9
1.92742	1058.8
1.92895	1086.9
1.93047	1062.5
1.93200	1072.9
1.93353	1038.6
1.93505	1069.0
1.93658	1066.3
1.93811	1027.8
1.93964	1021.5
1.94116	1013.5
1.94269	992.7
1.94422	1029.0
1.94575	1050.4
1.94727	1004.5
1.94880	1028.2
1.95033	987.5
1.95185	972.7
1.95338	1000.5
1.95491	1003.2
1.95644	973.6
1.95796	975.7
1.95949	1002.2
1.96102	984.7
1.96255	971.8
1.96407	948.2
1.96560	978.8
1.96713	983.1
1.96865	967.2
1.97018	946.5
1.97171	962.6
1.97324	963.8
1.97476	980.6
1.97629	944.5
1.97782	935.1
1.97935	947.7
1.98087	940.5
1.98240	917.0
1.98393	938.3
1.98545	958.1
1.98698	963.4
1.98851	932.1
1.99004	946.3
1.99156	940.8
1.99309	965.6
1.99462	936.2
1.99615	919.5
1.99767	957.8
1.99920	959.4
2.00073	914.3
2.00225	905.1
2.00378	920.1
2.00531	905.1
2.00684	914.5
2.00836	909.8
2.00989	899.0
2.01142	900.9
2.01295	892.4
2.01447	897.9
2.01600	897.5
2.01753	913.1
2.01905	916.4
2.02058	915.3
2.02211	893.2
2.02364	904.0
2.02516	913.9
2.02669	898.8
2.02822	895.7
2.02975	879.8
2.03127	887.6
2.03280	852.6
2.03433	898.2
2.03585	884.7
2.03738	849.1
2.03891	898.5
2.04044	847.0
2.04196	867.0
2.04349	887.0
2.04502	860.2
2.04655	850.1
2.04807	869.3
2.04960	844.0
2.05113	875.8
2.05265	861.3
2.05418	835.5
2.05571	864.3
2.05724	838.9
2.05876	862.1
2.06029	853.1
2.06182	835.0
2.06335	825.3
2.06487	849.5
2.06640	847.7
2.06793	848.7
2.06945	838.2
2.07098	824.8
2.07251	824.1
2.07404	848.5
2.07556	832.1
2.07709	844.7
2.07862	838.5
2.08015	810.6
2.08167	834.5
2.08320	812.7
2.08473	840.0
2.08625	797.6
2.08778	836.8
2.08931	816.5
2.09084	839.8
2.09236	804.3
2.09389	828.1
2.09542	841.7
2.09695	813.8
2.09847	792.1
2.10000	827.3
2.10153	830.3
2.10305	837.2
2.10458	830.6
2.10611	818.1
2.10764	833.3
2.10916	832.0
2.11069	805.0
2.11222	817.8
2.11375	811.4
2.11527	806.3
2.11680	786.5
2.11833	804.3
2.11985	817.5
2.12138	813.8
2.12291	801.4
2.12444	809.3
2.12596	787.9
2.12749	792.5
2.12902	797.0
2.13055	790.2
2.13207	782.2
2.13360	804.5
2.13513	791.1
2.13665	780.3
2.13818	791.5
2.13971	808.0
2.14124	809.8
2.14276	791.6
2.14429	788.6
2.14582	787.0
2.14735	772.9
2.14887	808.1
2.15040	809.4
2.15193	793.0
2.15345	781.6
2.15498	751.1
2.15651	791.6
2.15804	781.2
2.15956	776.1
2.16109	785.2
2.16262	795.0
2.16415	788.8
2.16567	751.7
2.16720	785.2
2.16873	789.2
2.17025	751.7
2.17178	780.4
2.17331	759.5
2.17484	756.3
2.17636	756.1
2.17789	758.4
2.17942	763.5
2.18095	780.3
2.18247	766.2
2.18400	761.0
2.18553	769.0
2.18705	750.9
2.18858	760.5
2.19011	775.5
2.19164	770.3
2.19316	774.0
2.19469	773.5
2.19622	764.3
2.19775	770.3
2.19927	764.6
2.20080	750.5
2.20233	767.1
2.20385	739.1
2.20538	760.8
2.20691	765.6
2.20844	752.6
2.20996	748.3
2.21149	753.4
2.21302	756.8
2.21455	753.1
2.21607	772.0
2.21760	767.3
2.21913	758.6
2.22065	745.6
2.22218	746.0
2.22371	755.9
2.22524	757.7
2.22676	753.9
2.22829	746.3
2.22982	746.9
2.23135	749.7
2.23287	737.3
2.23440	738.7
2.23593	737.8
2.23745	770.5
2.23898	739.2
2.24051	748.4
2.24204	746.5
2.24356	746.6
2.24509	737.7
2.24662	749.9
2.24815	737.8
2.24967	737.4
2.25120	761.2
2.25273	754.2
2.25425	739.0
2.25578	739.2
2.25731	717.5
2.25884	748.2
2.26036	751.8
2.26189	745.2
2.26342	741.6
2.26495	736.2
2.26647	748.2
2.26800	737.4
2.26953	737.1
2.27105	731.4
2.27258	746.1
2.27411	757.3
2.27564	760.4
2.27716	747.6
2.27869	736.1
2.28022	748.0
2.28175	732.9
2.28327	730.9
2.28480	760.3
2.28633	732.3
2.28785	741.4
2.28938	763.5
2.29091	737.3
2.29244	751.4
2.29396	744.0
2.29549	738.8
2.29702	719.7
2.29855	727.7
2.30007	726.7
2.30160	729.6
2.30313	728.4
2.30465	734.8
2.30618	718.3
2.30771	729.7
2.30924	756.2
2.31076	741.5
2.31229	730.0
2.31382	730.5
2.31535	746.1
2.31687	728.5
2.31840	701.0
2.31993	725.8
2.32145	736.3
2.32298	741.7
2.32451	729.9
2.32604	749.7
2.32756	730.2
2.32909	706.5
2.33062	741.0
2.33215	748.8
2.33367	721.1
2.33520	742.3
2.33673	735.3
2.33825	728.5
2.33978	744.3
2.34131	739.8
2.34284	703.0
2.34436	721.8
2.34589	738.0
2.34742	710.3
2.34895	731.5
2.35047	723.9
2.35200	725.9
2.35353	718.4
2.35505	721.8
2.35658	731.8
2.35811	742.1
2.35964	715.4
2.36116	717.8
2.36269	731.1
2.36422	741.5
2.36575	730.6
2.36727	721.9
2.36880	739.0
2.37033	731.9
2.37185	748.3
2.37338	706.5
2.37491	717.5
2.37644	720.5
2.37796	743.8
2.37949	715.9
2.38102	719.5
2.38255	712.7
2.38407	709.8
2.38560	723.5
2.38713	736.5
2.38865	708.8
2.39018	723.8
2.39171	716.6
2.39324	745.7
2.39476	741.6
2.39629	724.9
2.39782	704.4
2.39935	718.6
2.40087	716.8
2.40240	735.2
2.40393	739.3
2.40545	724.7
2.40698	706.9
2.40851	715.4
2.41004	729.5
2.41156	732.8
2.41309	721.1
2.41462	723.1
2.41615	707.1
2.41767	742.4
2.41920	695.0
2.42073	718.8
2.42225	704.2
2.42378	723.7
2.42531	752.8
2.42684	723.3
2.42836	708.9
2.42989	731.2
2.43142	719.2
2.43295	729.3
2.43447	708.3
2.43600	741.2
2.43753	727.9
2.43905	697.8
2.44058	736.6
2.44211	729.4
2.44364	712.4
2.44516	717.6
2.44669	726.4
2.44822	713.5
2.44975	715.1
2.45127	716.2
2.45280	721.4
2.45433	724.9
2.45585	703.0
2.45738	710.2
2.45891	739.3
2.46044	717.9
2.46196	711.0
2.46349	714.0
2.46502	708.3
2.46655	710.8
2.46807	715.1
2.46960	712.7
2.47113	713.4
2.47265	735.6
2.47418	732.5
2.47571	701.8
2.47724	700.5
2.47876	712.1
2.48029	688.8
2.48182	711.3
2.48335	723.8
2.48487	706.7
2.48640	722.2
2.48793	716.7
2.48945	697.6
2.49098	709.7
2.49251	700.1
2.49404	713.1
2.49556	712.7
2.49709	725.9
2.49862	717.9
2.50015	710.1
2.50167	718.2
2.50320	706.1
2.50473	699.1
2.50625	703.4
2.50778	696.5
2.50931	720.3
2.51084	716.8
2.51236	701.7
2.51389	721.1
2.51542	703.7
2.51695	734.0
2.51847	728.5
2.52000	711.1
2.52153	705.6
2.52305	715.6
2.52458	709.8
2.52611	719.6
2.52764	722.4
2.52916	713.6
2.53069	725.8
2.53222	701.5
2.53375	705.6
2.53527	695.2
2.53680	720.9
2.53833	721.5
2.53985	712.3
2.54138	706.8
2.54291	714.9
2.54444	706.8
2.54596	708.2
2.54749	717.8
2.54902	703.0
2.55055	730.3
2.55207	704.5
2.55360	710.9
2.55513	728.7
2.55665	714.4
2.55818	698.0
2.55971	700.3
2.56124	722.3
2.56276	712.1
2.56429	705.2
2.56582	709.0
2.56735	696.6
2.56887	705.3
2.57040	715.4
2.57193	706.0
2.57345	714.3
2.57498	704.3
2.57651	698.2
2.57804	696.1
2.57956	702.6
2.58109	710.3
2.58262	722.9
2.58415	709.4
2.58567	723.0
2.58720	702.7
2.58873	694.3
2.59025	704.2
2.59178	707.7
2.59331	703.1
2.59484	726.5
2.59636	700.2
2.59789	710.2
2.59942	699.2
2.60095	703.3
2.60247	701.1
2.60400	709.4
2.60553	708.9
2.60705	699.8
2.60858	714.4
2.61011	693.1
2.61164	707.3
2.61316	687.8
2.61469	687.8
2.61622	714.8
2.61775	718.1
2.61927	718.7
2.62080	732.2
2.62233	715.8
2.62385	715.8
2.62538	734.4
2.62691	719.3
2.62844	721.3
2.62996	709.0
2.63149	705.8
2.63302	724.5
2.63455	692.4
2.63607	721.5
2.63760	694.9
2.63913	705.7
2.64065	702.5
2.64218	712.2
2.64371	719.3
2.64524	709.2
2.64676	729.1
2.64829	727.0
2.64982	741.5
2.65135	756.1
2.65287	740.0
2.65440	767.2
2.65593	781.1
2.65745	777.5
2.65898	800.7
2.66051	822.1
2.66204	835.8
2.66356	846.3
2.66509	868.1
2.66662	869.2
2.66815	884.3
2.66967	902.9
2.67120	929.4
2.67273	946.1
2.67425	947.0
2.67578	971.7
2.67731	981.0
2.67884	983.3
2.68036	1018.9
2.68189	1026.0
2.68342	1055.9
2.68495	1056.3
2.68647	1078.7
2.68800	1111.4
2.68953	1094.0
2.69105	1125.3
2.69258	1099.1
2.69411	1117.4
2.69564	1138.7
2.69716	1189.9
2.69869	1132.1
2.70022	1162.7
2.70175	1226.8
2.70327	1200.6
2.70480	1217.2
2.70633	1235.7
2.70785	1247.5
2.70938	1288.3
2.71091	1258.9
2.71244	1299.1
2.71396	1288.2
2.71549	1330.9
2.71702	1350.6
2.71855	1396.1
2.72007	1349.8
2.72160	1358.0
2.72313	1381.3
2.72465	1404.4
2.72618	1425.7
2.72771	1425.4
2.72924	1388.6
2.73076	1405.9
2.73229	1412.4
2.73382	1435.9
2.73535	1490.1
2.73687	1504.6
2.73840	1456.6
2.73993	1477.8
2.74145	1497.5
2.74298	1542.2
2.74451	1534.2
2.74604	1516.5
2.74756	1569.6
2.74909	1530.0
2.75062	1519.8
2.75215	1539.6
2.75367	1559.6
2.75520	1512.6
2.75673	1531.2
2.75825	1511.6
2.75978	1532.8
2.76131	1540.5
2.76284	1532.9
2.76436	1564.6
2.76589	1575.6
2.76742	1566.7
2.76895	1569.3
2.77047	1528.4
2.77200	1536.3
2.77353	1545.8
2.77505	1523.2
2.77658	1574.3
2.77811	1542.1
2.77964	1547.8
2.78116	1541.6
2.78269	1552.0
2.78422	1550.2
2.78575	1524.2
2.78727	1536.0
2.78880	1535.9
2.79033	1492.0
2.79185	1513.9
2.79338	1521.1
2.79491	1525.5
2.79644	1525.7
2.79796	1497.9
2.79949	1501.9
2.80102	1483.4
2.80255	1491.2
2.80407	1484.8
2.80560	1452.2
2.80713	1472.1
2.80865	1423.9
2.81018	1456.1
2.81171	1425.3
2.81324	1426.3
2.81476	1402.2
2.81629	1429.1
2.81782	1416.7
2.81935	1422.5
2.82087	1380.8
2.82240	1391.0
2.82393	1412.0
2.82545	1416.5
2.82698	1386.2
2.82851	1381.4
2.83004	1395.7
2.83156	1412.0
2.83309	1386.2
2.83462	1409.8
2.83615	1379.5
2.83767	1370.5
2.83920	1355.8
2.84073	1355.9
2.84225	1349.0
2.84378	1354.7
2.84531	1376.9
2.84684	1328.5
2.84836	1314.7
2.84989	1331.4
2.85142	1339.0
2.85295	1328.1
2.85447	1324.8
2.85600	1346.8
2.85753	1336.8
2.85905	1303.7
2.86058	1314.0
2.86211	1313.0
2.86364	1278.2
2.86516	1273.1
2.86669	1275.6
2.86822	1251.1
2.86975	1289.7
2.87127	1236.7
2.87280	1235.6
2.87433	1232.2
2.87585	1229.9
2.87738	1260.4
2.87891	1242.2
2.88044	1266.4
2.88196	1260.7
2.88349	1228.6
2.88502	1206.1
2.88655	1224.7
2.88807	1241.8
2.88960	1180.6
2.89113	1215.3
2.89265	1180.4
2.89418	1213.5
2.89571	1209.3
2.89724	1181.1
2.89876	1184.9
2.90029	1173.3
2.90182	1146.7
2.90335	1125.9
2.90487	1150.9
2.90640	1146.8
2.90793	1150.3
2.90945	1136.5
2.91098	1122.2
2.91251	1123.1
2.91404	1148.0
2.91556	1106.2
2.91709	1123.1
2.91862	1092.3
2.92015	1083.2
2.92167	1088.7
2.92320	1096.7
2.92473	1085.7
2.92625	1068.3
2.92778	1056.0
2.92931	1080.4
2.93084	1079.1
2.93236	1057.2
2.93389	1067.4
2.93542	1036.8
2.93695	1030.0
2.93847	1056.3
2.94000	1060.3
2.94153	1044.1
2.94305	1066.3
2.94458	1016.3
2.94611	1069.1
2.94764	1042.3
2.94916	1036.1
2.95069	1043.8
2.95222	994.4
2.95375	1034.2
2.95527	1026.9
2.95680	991.1
2.95833	998.2
2.95985	998.5
2.96138	1017.9
2.96291	1009.3
2.96444	987.3
2.96596	980.9
2.96749	1010.8
2.96902	984.0
2.97055	974.7
2.97207	999.8
2.97360	996.8
2.97513	976.2
2.97665	999.6
2.97818	961.2
2.97971	940.7
2.98124	973.0
2.98276	968.4
2.98429	944.9
2.98582	972.9
2.98735	964.2
2.98887	933.1
2.99040	965.3
2.99193	932.5
2.99345	946.3
2.99498	961.5
2.99651	952.7
2.99804	923.4
2.99956	968.6
3.00109	913.7
3.00262	941.0
3.00415	947.8
3.00567	943.3
3.00720	945.9
3.00873	888.6
3.01025	930.7
3.01178	905.0
3.01331	919.9
3.01484	923.2
3.01636	873.7
3.01789	901.6
3.01942	920.9
3.02095	922.5
3.02247	904.3
3.02400	890.8
3.02553	887.1
3.02705	890.0
3.02858	886.0
3.03011	891.0
3.03164	903.1
3.03316	900.6
3.03469	875.0
3.03622	864.2
3.03775	865.4
3.03927	859.2
3.04080	872.0
3.04233	874.9
3.04385	856.8
3.04538	865.5
3.04691	856.9
3.04844	869.1
3.04996	881.7
3.05149	886.6
3.05302	885.0
3.05455	865.0
3.05607	839.4
3.05760	886.1
3.05913	879.6
3.06065	847.3
3.06218	870.6
3.06371	862.1
3.06524	864.8
3.06676	844.2
3.06829	846.6
3.06982	877.0
3.07135	880.4
3.07287	872.9
3.07440	869.7
3.07593	869.8
3.07745	854.8
3.07898	862.7
3.08051	872.8
3.08204	856.3
3.08356	864.2
3.08509	854.7
3.08662	869.4
3.08815	840.9
3.08967	855.6
3.09120	844.4
3.09273	854.2
3.09425	853.7
3.09578	837.7
3.09731	842.9
3.09884	812.7
3.10036	837.3
3.10189	846.8
3.10342	826.0
3.10495	837.5
3.10647	827.3
3.10800	824.2
3.10953	809.5
3.11105	847.2
3.11258	815.0
3.11411	800.7
3.11564	812.8
3.11716	804.4
3.11869	845.0
3.12022	817.7
3.12175	816.3
3.12327	823.3
3.12480	802.8
3.12633	832.9
3.12785	806.5
3.12938	806.6
3.13091	803.9
3.13244	768.7
3.13396	786.9
3.13549	830.1
3.13702	810.0
3.13855	801.3
3.14007	803.4
3.14160	812.6
3.14313	790.9
3.14465	798.5
3.14618	801.4
3.14771	789.4
3.14924	795.7
3.15076	807.1
3.15229	774.2
3.15382	817.3
3.15535	796.7
3.15687	806.3
3.15840	797.6
3.15993	790.6
3.16145	785.4
3.16298	771.4
3.16451	789.5
3.16604	789.5
3.16756	785.4
3.16909	795.4
3.17062	792.6
3.17215	786.1
3.17367	780.2
3.17520	787.3
3.17673	777.3
3.17825	774.1
3.17978	785.3
3.18131	777.9
3.18284	798.3
3.18436	780.5
3.18589	798.3
3.18742	776.2
3.18895	784.3
3.19047	797.3
3.19200	819.8
3.19353	799.8
3.19505	759.0
3.19658	773.4
3.19811	760.0
3.19964	783.0
3.20116	791.2
3.20269	779.4
3.20422	757.9
3.20575	782.9
3.20727	755.8
3.20880	779.5
3.21033	758.4
3.21185	780.8
3.21338	752.7
3.21491	758.3
3.21644	780.5
3.21796	758.7
3.21949	771.5
3.22102	753.5
3.22255	767.2
3.22407	770.1
3.22560	779.2
3.22713	776.6
3.22865	787.1
3.23018	787.7
3.23171	754.9
3.23324	769.5
3.23476	777.2
3.23629	788.2
3.23782	776.0
3.23935	757.7
3.24087	749.2
3.24240	778.6
3.24393	787.4
3.24545	771.0
3.24698	760.1
3.24851	743.7
3.25004	756.9
3.25156	768.1
3.25309	753.8
3.25462	762.0
3.25615	734.7
3.25767	761.6
3.25920	725.6
3.26073	731.6
3.26225	760.0
3.26378	745.0
3.26531	727.7
3.26684	766.4
3.26836	746.3
3.26989	749.0
3.27142	742.5
3.27295	741.1
3.27447	755.8
3.27600	733.1
3.27753	760.6
3.27905	729.2
3.28058	752.7
3.28211	740.2
3.28364	754.9
3.28516	750.3
3.28669	732.7
3.28822	742.4
3.28975	747.2
3.29127	739.0
3.29280	747.7
3.29433	738.4
3.29585	754.7
3.29738	738.8
3.29891	758.0
3.30044	739.3
3.30196	729.0
3.30349	749.3
3.30502	728.9
3.30655	752.9
3.30807	741.2
3.30960	742.1
3.31113	744.6
3.31265	746.4
3.31418	734.2
3.31571	739.7
3.31724	740.2
3.31876	744.4
3.32029	738.7
3.32182	733.0
3.32335	733.2
3.32487	744.3
3.32640	743.8
3.32793	727.5
3.32945	734.8
3.33098	736.8
3.33251	732.3
3.33404	732.0
3.33556	729.9
3.33709	757.9
3.33862	727.0
3.34015	732.3
3.34167	715.9
3.34320	727.0
3.34473	749.8
3.34625	729.3
3.34778	707.2
3.34931	744.4
3.35084	731.5
3.35236	735.3
3.35389	726.7
3.35542	737.7
3.35695	726.7
3.35847	702.8
3.36000	732.0
3.36153	729.5
3.36305	718.2
3.36458	748.0
3.36611	743.3
3.36764	724.2
3.36916	739.0
3.37069	732.7
3.37222	724.9
3.37375	735.5
3.37527	752.1
3.37680	734.9
3.37833	719.8
3.37985	719.5
3.38138	729.0
3.38291	727.5
3.38444	722.2
3.38596	720.0
3.38749	736.5
3.38902	717.6
3.39055	725.8
3.39207	717.9
3.39360	742.9
3.39513	740.8
3.39665	739.5
3.39818	738.6
3.39971	713.8
3.40124	730.6
3.40276	734.9
3.40429	725.1
3.40582	741.8
3.40735	724.8
3.40887	734.6
3.41040	750.2
3.41193	733.5
3.41345	701.6
3.41498	710.2
3.41651	730.6
3.41804	702.3
3.41956	735.2
3.42109	722.2
3.42262	716.6
3.42415	724.4
3.42567	716.7
3.42720	727.9
3.42873	718.2
3.43025	709.1
3.43178	718.7
3.43331	715.6
3.43484	714.1
3.43636	717.8
3.43789	719.3
3.43942	726.3
3.44095	716.9
3.44247	739.2
3.44400	719.4
3.44553	721.9
3.44705	731.3
3.44858	727.0
3.45011	714.7
3.45164	712.0
3.45316	725.7
3.45469	713.6
3.45622	717.9
3.45775	710.4
3.45927	722.8
3.46080	743.3
3.46233	729.2
3.46385	722.1
3.46538	731.3
3.46691	729.3
3.46844	724.0
3.46996	705.9
3.47149	723.3
3.47302	722.4
3.47455	699.9
3.47607	715.4
3.47760	714.3
3.47913	710.2
3.48065	727.4
3.48218	719.2
3.48371	705.2
3.48524	720.2
3.48676	745.3
3.48829	715.1
3.48982	718.2
3.49135	722.9
3.49287	722.3
3.49440	748.8
3.49593	704.7
3.49745	733.6
3.49898	735.2
3.50051	751.5
3.50204	694.3
3.50356	732.8
3.50509	747.8
3.50662	726.5
3.50815	722.8
3.50967	717.2
3.51120	725.6
3.51273	745.3
3.51425	716.2
3.51578	720.0
3.51731	705.9
3.51884	728.4
3.52036	717.4
3.52189	740.7
3.52342	726.2
3.52495	720.0
3.52647	713.0
3.52800	718.1
3.52953	705.1
3.53105	716.3
3.53258	718.0
3.53411	717.8
3.53564	707.4
3.53716	732.1
3.53869	702.4
3.54022	710.0
3.54175	717.4
3.54327	713.9
3.54480	725.7
3.54633	707.5
3.54785	726.9
3.54938	699.6
3.55091	710.8
3.55244	715.4
3.55396	704.3
3.55549	720.9
3.55702	727.6
3.55855	717.2
3.56007	728.6
3.56160	711.2
3.56313	706.7
3.56465	726.4
3.56618	702.6
3.56771	735.1
3.56924	714.2
3.57076	728.2
3.57229	703.2
3.57382	710.8
3.57535	702.1
3.57687	708.6
3.57840	722.1
3.57993	694.7
3.58145	715.9
3.58298	707.5
3.58451	723.4
3.58604	717.3
3.58756	717.5
3.58909	742.0
3.59062	732.9
3.59215	712.4
3.59367	711.9
3.59520	715.5
3.59673	718.0
3.59825	700.1
3.59978	702.3
3.60131	725.3
3.60284	731.6
3.60436	706.1
3.60589	722.2
3.60742	727.2
3.60895	731.6
3.61047	709.8
3.61200	725.2
3.61353	722.0
3.61505	707.3
3.61658	708.7
3.61811	719.2
3.61964	702.8
3.62116	721.3
3.62269	703.9
3.62422	729.4
3.62575	739.3
3.62727	735.2
3.62880	745.4
3.63033	739.8
3.63185	757.6
3.63338	771.6
3.63491	756.7
3.63644	786.2
3.63796	779.5
3.63949	800.6
3.64102	816.1
3.64255	825.1
3.64407	821.8
3.64560	847.5
3.64713	852.9
3.64865	878.0
3.65018	866.9
3.65171	908.6
3.65324	901.9
3.65476	914.3
3.65629	940.3
3.65782	964.2
3.65935	1002.2
3.66087	1007.8
3.66240	1050.0
3.66393	1019.2
3.66545	1059.9
3.66698	1081.9
3.66851	1098.8
3.67004	1108.8
3.67156	1131.8
3.67309	1106.1
3.67462	1133.4
3.67615	1135.8
3.67767	1165.7
3.67920	1187.3
3.68073	1192.5
3.68225	1212.8
3.68378	1242.2
3.68531	1262.9
3.68684	1298.2
3.68836	1320.0
3.68989	1304.7
3.69142	1332.5
3.69295	1374.6
3.69447	1391.3
3.69600	1393.8
3.69753	1430.3
3.69905	1416.6
3.70058	1446.3
3.70211	1471.4
3.70364	1481.8
3.70516	1440.7
3.70669	1493.0
3.70822	1473.2
3.70975	1518.5
3.71127	1538.5
3.71280	1527.2
3.71433	1550.3
3.71585	1536.1
3.71738	1582.9
3.71891	1545.7
3.72044	1569.7
3.72196	1571.4
3.72349	1575.6
3.72502	1572.5
3.72655	1600.9
3.72807	1542.7
3.72960	1582.3
3.73113	1597.7
3.73265	1579.7
3.73418	1603.0
3.73571	1582.1
3.73724	1545.8
3.73876	1612.1
3.74029	1565.7
3.74182	1577.1
3.74335	1585.2
3.74487	1624.8
3.74640	1597.9
3.74793	1633.6
3.74945	1583.9
3.75098	1645.4
3.75251	1579.0
3.75404	1633.9
3.75556	1629.0
3.75709	1610.1
3.75862	1629.6
3.76015	1638.5
3.76167	1623.3
3.76320	1627.4
3.76473	1584.1
3.76625	1594.8
3.76778	1625.2
3.76931	1658.7
3.77084	1612.8
3.77236	1586.1
3.77389	1686.8
3.77542	1621.8
3.77695	1567.2
3.77847	1589.2
3.78000	1624.4
3.78153	1606.6
3.78305	1582.0
3.78458	1563.9
3.78611	1558.9
3.78764	1506.8
3.78916	1559.3
3.79069	1542.5
3.79222	1539.6
3.79375	1561.5
3.79527	1528.0
3.79680	1543.5
3.79833	1485.7
3.79985	1496.7
3.80138	1510.5
3.80291	1501.0
3.80444	1461.1
3.80596	1535.5
3.80749	1466.0
3.80902	1489.1
3.81055	1492.8
3.81207	1456.2
3.81360	1469.8
3.81513	1470.7
3.81665	1471.2
3.81818	1429.5
3.81971	1408.6
3.82124	1422.7
3.82276	1423.4
3.82429	1409.0
3.82582	1439.8
3.82735	1423.4
3.82887	1387.7
3.83040	1409.2
3.83193	1400.1
3.83345	1410.8
3.83498	1405.2
3.83651	1404.5
3.83804	1347.9
3.83956	1377.2
3.84109	1353.6
3.84262	1354.3
3.84415	1375.8
3.84567	1334.4
3.84720	1314.0
3.84873	1354.8
3.85025	1334.6
3.85178	1310.6
3.85331	1322.0
3.85484	1320.2
3.85636	1295.0
3.85789	1306.1
3.85942	1296.1
3.86095	1279.8
3.86247	1295.5
3.86400	1308.9
3.86553	1300.7
3.86705	1278.4
3.86858	1278.0
3.87011	1254.3
3.87164	1260.7
3.87316	1245.8
3.87469	1258.1
3.87622	1255.4
3.87775	1236.7
3.87927	1265.5
3.88080	1217.7
3.88233	1250.0
3.88385	1209.2
3.88538	1236.7
3.88691	1225.2
3.88844	1190.7
3.88996	1237.8
3.89149	1205.8
3.89302	1200.7
3.89455	1145.1
3.89607	1184.2
3.89760	1170.3
3.89913	1187.8
3.90065	1183.4
3.90218	1152.1
3.90371	1184.3
3.90524	1185.3
3.90676	1189.7
3.90829	1146.7
3.90982	1127.2
3.91135	1146.9
3.91287	1114.9
3.91440	1134.9
3.91593	1158.3
3.91745	1107.9
3.91898	1113.0
3.92051	1132.5
3.92204	1108.5
3.92356	1095.3
3.92509	1117.4
3.92662	1116.6
3.92815	1095.0
3.92967	1097.6
3.93120	1091.7
3.93273	1099.6
3.93425	1075.9
3.93578	1066.8
3.93731	1060.5
3.93884	1079.4
3.94036	1084.9
3.94189	1075.8
3.94342	1092.9
3.94495	1059.5
3.94647	1095.5
3.94800	1019.3
3.94953	1033.6
3.95105	1054.1
3.95258	1007.9
3.95411	1041.7
3.95564	1045.8
3.95716	998.6
3.95869	1031.6
3.96022	1031.1
3.96175	1066.0
3.96327	1000.0
3.96480	1032.0
3.96633	1025.4
3.96785	993.8
3.96938	1011.2
3.97091	998.0
3.97244	988.9
3.97396	1000.8
3.97549	974.9
3.97702	972.4
3.97855	995.8
3.98007	971.2
3.98160	989.8
3.98313	968.9
3.98465	969.8
3.98618	948.8
3.98771	972.5
3.98924	966.5
3.99076	954.6
3.99229	971.7
3.99382	951.9
3.99535	951.8
3.99687	950.6
3.99840	960.9
3.99993	920.3
4.00145	954.8
4.00298	929.2
4.00451	894.6
4.00604	919.8
4.00756	949.8
4.00909	919.4
4.01062	908.6
4.01215	922.7
4.01367	908.7
4.01520	917.6
4.01673	891.9
4.01825	931.3
4.01978	907.9
4.02131	922.6
4.02284	882.2
4.02436	887.8
4.02589	888.8
4.02742	915.9
4.02895	876.3
4.03047	922.8
4.03200	896.1
4.03353	880.4
4.03505	879.7
4.03658	889.9
4.03811	894.5
4.03964	869.4
4.04116	864.5
4.04269	878.5
4.04422	868.2
4.04575	885.7
4.04727	859.5
4.04880	877.8
4.05033	898.9
4.05185	881.2
4.05338	857.7
4.05491	867.1
4.05644	862.1
4.05796	873.8
4.05949	868.4
4.06102	863.8
4.06255	848.6
4.06407	833.8
4.06560	845.7
4.06713	876.6
4.06865	838.9
4.07018	844.7
4.07171	846.4
4.07324	849.3
4.07476	859.0
4.07629	867.4
4.07782	852.9
4.07935	851.4
4.08087	841.8
4.08240	840.5
4.08393	821.2
4.08545	818.0
4.08698	846.8
4.08851	830.2
4.09004	842.3
4.09156	857.0
4.09309	832.4
4.09462	839.6
4.09615	827.7
4.09767	805.8
4.09920	821.9
4.10073	813.8
4.10225	835.1
4.10378	819.3
4.10531	837.7
4.10684	832.7
4.10836	798.9
4.10989	810.8
4.11142	822.6
4.11295	817.6
4.11447	804.0
4.11600	831.7
4.11753	807.2
4.11905	809.0
4.12058	790.6
4.12211	808.5
4.12364	804.4
4.12516	810.1
4.12669	840.1
4.12822	810.6
4.12975	823.4
4.13127	810.0
4.13280	810.0
4.13433	816.9
4.13585	822.4
4.13738	779.0
4.13891	787.5
4.14044	802.4
4.14196	807.6
4.14349	793.5
4.14502	789.3
4.14655	794.2
4.14807	789.2
4.14960	798.6
4.15113	795.6
4.15265	787.8
4.15418	783.2
4.15571	774.3
4.15724	781.6
4.15876	789.6
4.16029	784.8
4.16182	789.6
4.16335	769.1
4.16487	785.7
4.16640	781.1
4.16793	769.4
4.16945	779.5
4.17098	783.9
4.17251	787.0
4.17404	783.8
4.17556	790.8
4.17709	777.8
4.17862	756.8
4.18015	784.1
4.18167	775.2
4.18320	761.5
4.18473	780.8
4.18625	791.8
4.18778	763.7
4.18931	803.1
4.19084	796.8
4.19236	777.7
4.19389	780.2
4.19542	768.1
4.19695	788.9
4.19847	772.3
4.20000	759.9
4.20153	767.1
4.20305	766.7
4.20458	778.7
4.20611	781.0
4.20764	780.3
4.20916	791.5
4.21069	783.1
4.21222	781.1
4.21375	780.0
4.21527	780.2
4.21680	772.8
4.21833	773.3
4.21985	758.9
4.22138	766.1
4.22291	769.7
4.22444	805.3
4.22596	764.5
4.22749	784.7
4.22902	764.8
4.23055	774.6
4.23207	764.2
4.23360	780.1
4.23513	783.1
4.23665	804.9
4.23818	774.5
4.23971	770.6
4.24124	783.1
4.24276	769.8
4.24429	778.2
4.24582	758.0
4.24735	771.3
4.24887	783.9
4.25040	760.9
4.25193	763.1
4.25345	783.6
4.25498	752.3
4.25651	760.8
4.25804	752.9
4.25956	749.5
4.26109	762.0
4.26262	769.8
4.26415	742.3
4.26567	773.5
4.26720	771.4
4.26873	771.8
4.27025	749.7
4.27178	760.7
4.27331	775.5
4.27484	765.4
4.27636	773.5
4.27789	755.8
4.27942	752.3
4.28095	745.7
4.28247	776.3
4.28400	770.4
4.28553	758.3
4.28705	779.6
4.28858	755.7
4.29011	757.4
4.29164	774.0
4.29316	760.9
4.29469	750.2
4.29622	768.2
4.29775	757.4
4.29927	770.9
4.30080	758.5
4.30233	728.5
4.30385	765.5
4.30538	737.2
4.30691	751.6
4.30844	734.3
4.30996	744.3
4.31149	726.7
4.31302	728.6
4.31455	753.1
4.31607	739.0
4.31760	764.0
4.31913	741.3
4.32065	737.4
4.32218	746.2
4.32371	757.4
4.32524	726.7
4.32676	722.7
4.32829	732.9
4.32982	735.1
4.33135	731.3
4.33287	742.1
4.33440	739.7
4.33593	745.8
4.33745	732.9
4.33898	747.7
4.34051	738.8
4.34204	735.7
4.34356	726.7
4.34509	760.8
4.34662	753.3
4.34815	737.6
4.34967	747.5
4.35120	715.2
4.35273	755.8
4.35425	721.2
4.35578	740.3
4.35731	743.6
4.35884	743.6
4.36036	740.8
4.36189	735.6
4.36342	722.2
4.36495	744.7
4.36647	734.1
4.36800	727.4
4.36953	726.6
4.37105	745.0
4.37258	732.3
4.37411	749.3
4.37564	720.5
4.37716	743.8
4.37869	731.9
4.38022	755.7
4.38175	737.3
4.38327	720.4
4.38480	724.5
4.38633	722.2
4.38785	729.8
4.38938	719.5
4.39091	738.6
4.39244	722.9
4.39396	752.8
4.39549	722.1
4.39702	717.6
4.39855	723.2
4.40007	740.7
4.40160	733.8
4.40313	724.0
4.40465	737.1
4.40618	738.4
4.40771	708.3
4.40924	743.2
4.41076	711.7
4.41229	752.6
4.41382	747.0
4.41535	721.8
4.41687	728.2
4.41840	746.7
4.41993	722.4
4.42145	729.4
4.42298	748.4
4.42451	727.3
4.42604	731.2
4.42756	723.3
4.42909	734.2
4.43062	725.8
4.43215	732.9
4.43367	730.0
4.43520	713.1
4.43673	714.9
4.43825	733.6
4.43978	743.1
4.44131	730.3
4.44284	710.7
4.44436	717.3
4.44589	727.2
4.44742	745.7
4.44895	739.6
4.45047	703.1
4.45200	726.3
4.45353	714.6
4.45505	711.8
4.45658	713.3
4.45811	704.8
4.45964	718.3
4.46116	711.7
4.46269	728.8
4.46422	735.5
4.46575	735.3
4.46727	708.5
4.46880	725.7
4.47033	721.7
4.47185	719.7
4.47338	725.6
4.47491	719.5
4.47644	727.0
4.47796	722.4
4.47949	727.7
4.48102	717.8
4.48255	715.9
4.48407	722.3
4.48560	739.2
4.48713	721.0
4.48865	725.4
4.49018	730.1
4.49171	712.4
4.49324	703.3
4.49476	713.8
4.49629	729.0
4.49782	701.0
4.49935	712.6
4.50087	701.2
4.50240	698.2
4.50393	704.1
4.50545	735.9
4.50698	702.9
4.50851	723.3
4.51004	705.9
4.51156	718.6
4.51309	712.5
4.51462	727.1
4.51615	711.1
4.51767	727.6
4.51920	725.5
4.52073	702.3
4.52225	717.7
4.52378	714.4
4.52531	726.9
4.52684	711.7
4.52836	731.6
4.52989	715.3
4.53142	752.7
4.53295	715.5
4.53447	711.7
4.53600	734.8
4.53753	725.4
4.53905	729.1
4.54058	712.0
4.54211	718.4
4.54364	711.3
4.54516	725.3
4.54669	723.6
4.54822	696.9
4.54975	724.8
4.55127	719.3
4.55280	724.9
4.55433	726.0
4.55585	739.7
4.55738	719.1
4.55891	726.4
4.56044	716.6
4.56196	702.8
4.56349	735.6
4.56502	737.8
4.56655	731.9
4.56807	725.7
4.56960	713.1
4.57113	702.5
4.57265	715.4
4.57418	705.2
4.57571	712.2
4.57724	709.9
4.57876	708.9
4.58029	710.2
4.58182	722.2
4.58335	692.3
4.58487	730.9
4.58640	731.0
4.58793	726.3
4.58945	729.0
4.59098	706.0
4.59251	712.2
4.59404	707.0
4.59556	720.5
4.59709	697.2
4.59862	699.5
4.60015	709.8
4.60167	701.6
4.60320	722.7
4.60473	723.7
4.60625	719.8
4.60778	711.5
4.60931	711.3
4.61084	720.6
4.61236	723.4
4.61389	714.7
4.61542	703.2
4.61695	715.7
4.61847	725.3
4.62000	701.8
4.62153	710.0
4.62305	709.9
4.62458	723.3
4.62611	725.4
4.62764	727.8
4.62916	732.2
4.63069	714.9
4.63222	702.3
4.63375	724.6
4.63527	706.6
4.63680	732.9
4.63833	717.6
4.63985	713.9
4.64138	721.4
4.64291	717.8
4.64444	746.2
4.64596	708.4
4.64749	724.4
4.64902	702.4
4.65055	724.8
4.65207	706.0
4.65360	698.6
4.65513	713.3
4.65665	724.8
4.65818	706.7
4.65971	723.3
4.66124	699.1
4.66276	709.0
4.66429	707.2
4.66582	721.2
4.66735	714.6
4.66887	714.9
4.67040	714.9
4.67193	730.0
4.67345	711.1
4.67498	697.0
4.67651	712.8
4.67804	709.2
4.67956	709.3
4.68109	720.5
4.68262	707.1
4.68415	711.5
4.68567	723.7
4.68720	710.7
4.68873	712.2
4.69025	697.9
4.69178	701.6
4.69331	707.7
4.69484	740.0
4.69636	715.6
4.69789	718.1
4.69942	699.7
4.70095	710.2
4.70247	719.3
4.70400	717.1
4.70553	710.1
4.70705	710.4
4.70858	692.0
4.71011	712.5
4.71164	709.3
4.71316	721.3
4.71469	726.9
4.71622	719.0
4.71775	720.7
4.71927	734.2
4.72080	737.1
4.72233	757.0
4.72385	765.2
4.72538	761.7
4.72691	799.0
4.72844	780.7
4.72996	805.7
4.73149	782.1
4.73302	798.8
4.73455	820.9
4.73607	830.9
4.73760	858.8
4.73913	837.1
4.74065	848.7
4.74218	865.8
4.74371	887.2
4.74524	914.6
4.74676	896.4
4.74829	893.0
4.74982	922.8
4.75135	911.0
4.75287	892.3
4.75440	935.2
4.75593	948.6
4.75745	964.1
4.75898	1000.0
4.76051	1002.9
4.76204	1033.0
4.76356	1037.7
4.76509	1074.7
4.76662	1093.4
4.76815	1082.7
4.76967	1108.9
4.77120	1108.1
4.77273	1147.2
4.77425	1155.2
4.77578	1202.8
4.77731	1183.9
4.77884	1222.3
4.78036	1250.7
4.78189	1274.3
4.78342	1287.7
4.78495	1330.3
4.78647	1302.5
4.78800	1354.7
4.78953	1326.1
4.79105	1374.3
4.79258	1399.5
4.79411	1359.5
4.79564	1367.6
4.79716	1429.1
4.79869	1422.6
4.80022	1438.5
4.80175	1458.5
4.80327	1467.8
4.80480	1421.2
4.80633	1470.1
4.80785	1445.5
4.80938	1477.7
4.81091	1497.1
4.81244	1500.7
4.81396	1532.3
4.81549	1495.9
4.81702	1539.8
4.81855	1490.3
4.82007	1562.8
4.82160	1582.8
4.82313	1564.6
4.82465	1568.1
4.82618	1538.1
4.82771	1556.8
4.82924	1547.9
4.83076	1595.7
4.83229	1568.8
4.83382	1535.5
4.83535	1526.4
4.83687	1529.5
4.83840	1581.7
4.83993	1549.5
4.84145	1628.6
4.84298	1585.1
4.84451	1612.6
4.84604	1651.8
4.84756	1587.9
4.84909	1602.5
4.85062	1606.0
4.85215	1584.6
4.85367	1550.9
4.85520	1592.9
4.85673	1563.3
4.85825	1562.1
4.85978	1528.4
4.86131	1572.8
4.86284	1535.1
4.86436	1556.8
4.86589	1559.4
4.86742	1534.5
4.86895	1493.8
4.87047	1542.3
4.87200	1540.2
4.87353	1511.8
4.87505	1520.3
4.87658	1524.1
4.87811	1492.9
4.87964	1505.6
4.88116	1488.1
4.88269	1457.3
4.88422	1471.4
4.88575	1470.3
4.88727	1417.0
4.88880	1467.3
4.89033	1450.7
4.89185	1476.8
4.89338	1464.3
4.89491	1432.8
4.89644	1406.8
4.89796	1386.8
4.89949	1406.2
4.90102	1448.8
4.90255	1403.8
4.90407	1408.2
4.90560	1402.9
4.90713	1422.3
4.90865	1385.9
4.91018	1434.1
4.91171	1395.3
4.91324	1435.6
4.91476	1423.1
4.91629	1359.7
4.91782	1419.3
4.91935	1424.9
4.92087	1370.1
4.92240	1406.3
4.92393	1402.4
4.92545	1411.3
4.92698	1384.1
4.92851	1352.7
4.93004	1347.0
4.93156	1353.0
4.93309	1332.5
4.93462	1314.9
4.93615	1283.6
4.93767	1287.0
4.93920	1313.0
4.94073	1300.3
4.94225	1269.1
4.94378	1269.9
4.94531	1259.5
4.94684	1261.4
4.94836	1259.4
4.94989	1246.7
4.95142	1294.6
4.95295	1256.6
4.95447	1245.6
4.95600	1276.3
4.95753	1254.4
4.95905	1238.0
4.96058	1259.2
4.96211	1266.9
4.96364	1238.9
4.96516	1249.5
4.96669	1212.6
4.96822	1204.4
4.96975	1204.2
4.97127	1249.8
4.97280	1221.6
4.97433	1208.6
4.97585	1226.8
4.97738	1196.6
4.97891	1172.2
4.98044	1158.7
4.98196	1187.1
4.98349	1175.0
4.98502	1152.6
4.98655	1133.2
4.98807	1168.5
4.98960	1170.3
4.99113	1143.8
4.99265	1180.7
4.99418	1121.5
4.99571	1100.5
4.99724	1125.7
4.99876	1149.1
5.00029	1113.5
5.00182	1107.3
5.00335	1106.0
5.00487	1115.9
5.00640	1103.1
5.00793	1095.8
5.00945	1049.8
5.01098	1109.2
5.01251	1094.2
5.01404	1091.8
5.01556	1066.0
5.01709	1057.1
5.01862	1042.2
5.02015	1049.0
5.02167	1075.1
5.02320	1043.8
5.02473	1049.3
5.02625	1059.0
5.02778	1045.3
5.02931	1063.3
5.03084	1028.8
5.03236	1023.9
5.03389	1028.4
5.03542	1040.6
5.03695	1010.3
5.03847	1038.9
5.04000	1036.6
5.04153	1018.4
5.04305	1004.8
5.04458	1012.4
5.04611	1020.4
5.04764	1014.7
5.04916	1021.5
5.05069	1000.8
5.05222	1006.0
5.05375	998.7
5.05527	999.3
5.05680	970.4
5.05833	992.5
5.05985	993.5
5.06138	999.0
5.06291	979.8
5.06444	992.2
5.06596	1038.0
5.06749	989.8
5.06902	950.6
5.07055	951.2
5.07207	948.8
5.07360	951.0
5.07513	965.2
5.07665	951.6
5.07818	936.1
5.07971	952.1
5.08124	929.7
5.08276	934.9
5.08429	940.0
5.08582	929.2
5.08735	919.2
5.08887	914.5
5.09040	967.6
5.09193	945.8
5.09345	909.7
5.09498	904.5
5.09651	900.5
5.09804	918.9
5.09956	911.3
5.10109	920.1
5.10262	922.5
5.10415	910.3
5.10567	908.2
5.10720	901.8
5.10873	913.7
5.11025	933.1
5.11178	910.6
5.11331	882.2
5.11484	899.2
5.11636	884.8
5.11789	888.6
5.11942	886.1
5.12095	862.3
5.12247	877.6
5.12400	879.5
5.12553	899.9
5.12705	876.9
5.12858	893.8
5.13011	880.2
5.13164	879.9
5.13316	876.1
5.13469	896.9
5.13622	892.8
5.13775	871.0
5.13927	870.7
5.14080	902.0
5.14233	868.9
5.14385	865.8
5.14538	861.4
5.14691	856.5
5.14844	864.9
5.14996	857.9
5.15149	866.8
5.15302	877.9
5.15455	857.6
5.15607	834.2
5.15760	842.7
5.15913	804.9
5.16065	876.8
5.16218	849.0
5.16371	826.3
5.16524	850.7
5.16676	838.4
5.16829	872.9
5.16982	820.5
5.17135	856.9
5.17287	853.1
5.17440	821.4
5.17593	846.8
5.17745	808.2
5.17898	820.6
5.18051	827.5
5.18204	833.1
5.18356	820.8
5.18509	810.6
5.18662	830.3
5.18815	811.9
5.18967	863.0
5.19120	804.2
5.19273	804.6
5.19425	814.2
5.19578	853.2
5.19731	812.3
5.19884	823.5
5.20036	832.3
5.20189	825.4
5.20342	819.3
5.20495	823.5
5.20647	822.3
5.20800	821.4
5.20953	828.2
5.21105	832.4
5.21258	821.1
5.21411	809.0
5.21564	830.1
5.21716	807.9
5.21869	805.8
5.22022	781.6
5.22175	800.9
5.22327	804.8
5.22480	797.7
5.22633	796.2
5.22785	775.4
5.22938	783.8
5.23091	779.2
5.23244	810.6
5.23396	813.2
5.23549	792.3
5.23702	804.4
5.23855	790.6
5.24007	813.1
5.24160	797.3
5.24313	795.8
5.24465	775.3
5.24618	801.0
5.24771	785.9
5.24924	792.6
5.25076	782.8
5.25229	797.5
5.25382	780.4
5.25535	809.2
5.25687	785.9
5.25840	803.5
5.25993	795.6
5.26145	794.4
5.26298	790.7
5.26451	782.7
5.26604	761.8
5.26756	777.0
5.26909	770.5
5.27062	780.1
5.27215	788.7
5.27367	750.0
5.27520	767.6
5.27673	754.9
5.27825	773.3
5.27978	763.8
5.28131	773.1
5.28284	792.5
5.28436	760.8
5.28589	772.5
5.28742	770.2
5.28895	776.1
5.29047	764.2
5.29200	766.6
5.29353	749.7
5.29505	773.0
5.29658	769.1
5.29811	767.5
5.29964	780.2
5.30116	803.3
5.30269	797.2
5.30422	785.3
5.30575	774.9
5.30727	759.8
5.30880	784.2
5.31033	754.3
5.31185	775.0
5.31338	776.4
5.31491	778.5
5.31644	772.8
5.31796	779.9
5.31949	761.2
5.32102	742.4
5.32255	755.2
5.32407	758.8
5.32560	778.0
5.32713	777.5
5.32865	768.2
5.33018	773.4
5.33171	776.9
5.33324	783.9
5.33476	770.7
5.33629	764.1
5.33782	780.8
5.33935	768.3
5.34087	769.5
5.34240	745.8
5.34393	769.5
5.34545	774.4
5.34698	780.1
5.34851	758.6
5.35004	761.7
5.35156	783.2
5.35309	772.0
5.35462	768.8
5.35615	778.2
5.35767	755.1
5.35920	737.3
5.36073	774.3
5.36225	754.9
5.36378	778.1
5.36531	766.2
5.36684	763.6
5.36836	750.3
5.36989	768.2
5.37142	746.8
5.37295	770.1
5.37447	788.0
5.37600	761.2
5.37753	743.9
5.37905	768.4
5.38058	757.4
5.38211	759.8
5.38364	743.2
5.38516	748.2
5.38669	746.5
5.38822	751.8
5.38975	732.7
5.39127	760.8
5.39280	747.5
5.39433	763.1
5.39585	759.6
5.39738	747.8
5.39891	748.3
5.40044	765.4
5.40196	736.2
5.40349	754.9
5.40502	763.6
5.40655	749.6
5.40807	735.0
5.40960	757.5
5.41113	755.0
5.41265	744.4
5.41418	762.1
5.41571	755.0
5.41724	745.5
5.41876	754.6
5.42029	748.6
5.42182	756.0
5.42335	736.9
5.42487	726.9
5.42640	743.3
5.42793	754.4
5.42945	737.1
5.43098	754.8
5.43251	742.1
5.43404	751.3
5.43556	732.0
5.43709	734.6
5.43862	733.0
5.44015	757.9
5.44167	758.7
5.44320	761.1
5.44473	731.3
5.44625	763.5
5.44778	736.1
5.44931	730.6
5.45084	713.0
5.45236	751.4
5.45389	738.9
5.45542	736.6
5.45695	738.9
5.45847	738.6
5.46000	742.6
5.46153	732.3
5.46305	730.7
5.46458	733.7
5.46611	732.3
5.46764	737.9
5.46916	737.1
5.47069	737.5
5.47222	734.3
5.47375	726.1
5.47527	744.9
5.47680	735.8
5.47833	739.4
5.47985	730.1
5.48138	755.2
5.48291	733.1
5.48444	728.1
5.48596	733.3
5.48749	745.7
5.48902	752.4
5.49055	731.3
5.49207	728.1
5.49360	740.1
5.49513	739.1
5.49665	736.3
5.49818	725.3
5.49971	728.8
5.50124	741.4
5.50276	734.1
5.50429	724.8
5.50582	732.9
5.50735	741.4
5.50887	734.3
5.51040	755.4
5.51193	729.5
5.51345	723.9
5.51498	738.9
5.51651	747.0
5.51804	731.3
5.51956	722.7
5.52109	753.8
5.52262	731.9
5.52415	726.9
5.52567	745.2
5.52720	718.0
5.52873	727.0
5.53025	729.0
5.53178	728.9
5.53331	729.1
5.53484	740.6
5.53636	746.7
5.53789	754.8
5.53942	736.3
5.54095	748.5
5.54247	696.8
5.54400	727.1
5.54553	729.2
5.54705	747.4
5.54858	742.2
5.55011	741.8
5.55164	751.2
5.55316	721.1
5.55469	731.0
5.55622	721.1
5.55775	714.9
5.55927	725.3
5.56080	729.3
5.56233	742.3
5.56385	732.8
5.56538	728.2
5.56691	729.3
5.56844	739.0
5.56996	729.8
5.57149	723.0
5.57302	744.8
5.57455	729.6
5.57607	750.8
5.57760	720.0
5.57913	724.6
5.58065	728.6
5.58218	719.0
5.58371	721.2
5.58524	736.1
5.58676	723.3
5.58829	724.1
5.58982	744.5
5.59135	727.8
5.59287	746.2
5.59440	738.8
5.59593	744.7
5.59745	717.6
5.59898	725.6
5.60051	720.6
5.60204	732.1
5.60356	723.6
5.60509	730.3
5.60662	718.8
5.60815	711.6
5.60967	710.5
5.61120	723.2
5.61273	715.8
5.61425	729.6
5.61578	727.1
5.61731	722.0
5.61884	721.1
5.62036	733.7
5.62189	722.4
5.62342	721.7
5.62495	743.7
5.62647	723.0
5.62800	712.1
5.62953	718.4
5.63105	751.0
5.63258	711.7
5.63411	717.7
5.63564	724.2
5.63716	736.3
5.63869	706.5
5.64022	728.2
5.64175	730.7
5.64327	715.0
5.64480	720.6
5.64633	735.7
5.64785	728.7
5.64938	724.7
5.65091	727.7
5.65244	726.3
5.65396	709.3
5.65549	728.8
5.65702	717.7
5.65855	714.1
5.66007	719.6
5.66160	716.3
5.66313	715.7
5.66465	717.3
5.66618	731.4
5.66771	719.3
5.66924	722.3
5.67076	716.3
5.67229	710.7
5.67382	705.3
5.67535	725.1
5.67687	732.4
5.67840	711.9
5.67993	725.3
5.68145	724.4
5.68298	728.6
5.68451	711.8
5.68604	708.2
5.68756	746.3
5.68909	727.8
5.69062	708.9
5.69215	709.3
5.69367	719.8
5.69520	711.8
5.69673	724.9
5.69825	726.7
5.69978	704.8
5.70131	704.7
5.70284	730.2
5.70436	707.9
5.70589	719.7
5.70742	729.3
5.70895	723.9
5.71047	716.6
5.71200	732.7
5.71353	736.8
5.71505	693.9
5.71658	723.0
5.71811	717.5
5.71964	717.7
5.72116	706.7
5.72269	703.3
5.72422	722.5
5.72575	739.1
5.72727	718.6
5.72880	735.3
5.73033	722.8
5.73185	723.4
5.73338	727.5
5.73491	736.4
5.73644	752.5
5.73796	760.1
5.73949	759.8
5.74102	771.0
5.74255	797.2
5.74407	835.1
5.74560	799.3
5.74713	847.2
5.74865	850.2
5.75018	831.4
5.75171	875.6
5.75324	865.1
5.75476	901.4
5.75629	905.7
5.75782	911.4
5.75935	927.4
5.76087	926.7
5.76240	954.6
5.76393	945.4
5.76545	968.6
5.76698	985.5
5.76851	1001.6
5.77004	1046.2
5.77156	1027.6
5.77309	1043.7
5.77462	1045.0
5.77615	1045.5
5.77767	1063.0
5.77920	1108.3
5.78073	1097.3
5.78225	1122.6
5.78378	1118.4
5.78531	1140.1
5.78684	1183.9
5.78836	1164.7
5.78989	1179.5
5.79142	1202.3
5.79295	1219.4
5.79447	1230.6
5.79600	1243.1
5.79753	1238.3
5.79905	1273.6
5.80058	1317.0
5.80211	1324.8
5.80364	1312.2
5.80516	1352.0
5.80669	1321.3
5.80822	1360.5
5.80975	1379.8
5.81127	1379.2
5.81280	1404.5
5.81433	1412.7
5.81585	1449.2
5.81738	1442.8
5.81891	1421.8
5.82044	1431.3
5.82196	1440.8
5.82349	1438.8
5.82502	1468.0
5.82655	1488.4
5.82807	1535.5
5.82960	1486.5
5.83113	1512.2
5.83265	1489.3
5.83418	1544.0
5.83571	1492.6
5.83724	1480.6
5.83876	1509.0
5.84029	1537.9
5.84182	1495.5
5.84335	1531.3
5.84487	1498.9
5.84640	1529.9
5.84793	1497.3
5.84945	1505.0
5.85098	1544.9
5.85251	1583.5
5.85404	1556.9
5.85556	1565.6
5.85709	1545.9
5.85862	1550.8
5.86015	1570.1
5.86167	1573.9
5.86320	1548.6
5.86473	1582.4
5.86625	1543.3
5.86778	1561.0
5.86931	1555.9
5.87084	1544.9
5.87236	1582.1
5.87389	1541.4
5.87542	1561.0
5.87695	1536.9
5.87847	1523.5
5.88000	1520.1
5.88153	1509.8
5.88305	1521.4
5.88458	1546.9
5.88611	1553.4
5.88764	1472.5
5.88916	1515.0
5.89069	1497.0
5.89222	1506.3
5.89375	1511.5
5.89527	1505.9
5.89680	1472.7
5.89833	1471.7
5.89985	1490.6
5.90138	1464.0
5.90291	1467.1
5.90444	1478.8
5.90596	1448.9
5.90749	1471.3
5.90902	1469.2
5.91055	1503.9
5.91207	1429.9
5.91360	1471.1
5.91513	1431.8
5.91665	1459.2
5.91818	1455.3
5.91971	1460.1
5.92124	1455.2
5.92276	1443.4
5.92429	1407.6
5.92582	1440.3
5.92735	1412.9
5.92887	1439.8
5.93040	1406.3
5.93193	1403.2
5.93345	1427.7
5.93498	1390.5
5.93651	1399.5
5.93804	1382.7
5.93956	1342.3
5.94109	1387.8
5.94262	1327.4
5.94415	1409.8
5.94567	1373.3
5.94720	1341.2
5.94873	1376.5
5.95025	1330.9
5.95178	1366.1
5.95331	1330.0
5.95484	1369.8
5.95636	1346.8
5.95789	1367.0
5.95942	1309.7
5.96095	1312.5
5.96247	1324.4
5.96400	1295.9
5.96553	1278.2
5.96705	1287.3
5.96858	1298.9
5.97011	1318.6
5.97164	1297.3
5.97316	1288.7
5.97469	1282.2
5.97622	1268.3
5.97775	1251.7
5.97927	1278.3
5.98080	1266.0
5.98233	1283.8
5.98385	1242.7
5.98538	1234.5
5.98691	1226.1
5.98844	1223.7
5.98996	1230.4
5.99149	1190.6
5.99302	1237.7
5.99455	1210.8
5.99607	1242.4
5.99760	1269.5
5.99913	1230.1
6.00065	1232.1
6.00218	1225.9
6.00371	1223.9
6.00524	1242.2
6.00676	1233.7
6.00829	1162.4
6.00982	1205.5
6.01135	1195.4
6.01287	1204.7
6.01440	1181.5
6.01593	1180.8
6.01745	1167.3
6.01898	1198.9
6.02051	1174.8
6.02204	1158.4
6.02356	1142.4
6.02509	1163.6
6.02662	1139.5
6.02815	1140.5
6.02967	1124.1
6.03120	1152.8
6.03273	1114.9
6.03425	1114.9
6.03578	1142.8
6.03731	1126.2
6.03884	1105.8
6.04036	1109.9
6.04189	1112.1
6.04342	1093.2
6.04495	1080.6
6.04647	1098.1
6.04800	1094.7
6.04953	1119.4
6.05105	1076.2
6.05258	1072.1
6.05411	1090.4
6.05564	1063.8
6.05716	1081.0
6.05869	1052.6
6.06022	1042.0
6.06175	1057.1
6.06327	1039.9
6.06480	1047.3
6.06633	1050.2
6.06785	1039.5
6.06938	1044.0
6.07091	1037.2
6.07244	1030.1
6.07396	1040.6
6.07549	992.3
6.07702	1010.0
6.07855	988.8
6.08007	1014.9
6.08160	1025.2
6.08313	1004.4
6.08465	1017.0
6.08618	988.6
6.08771	983.0
6.08924	994.2
6.09076	984.3
6.09229	1004.2
6.09382	980.7
6.09535	984.1
6.09687	945.3
6.09840	966.3
6.09993	943.8
6.10145	944.6
6.10298	993.7
6.10451	969.6
6.10604	948.4
6.10756	991.3
6.10909	969.9
6.11062	961.2
6.11215	972.4
6.11367	949.3
6.11520	924.8
6.11673	955.1
6.11825	926.0
6.11978	951.1
6.12131	955.3
6.12284	932.7
6.12436	938.1
6.12589	938.6
6.12742	954.7
6.12895	946.4
6.13047	922.0
6.13200	920.4
6.13353	895.8
6.13505	932.2
6.13658	898.4
6.13811	890.3
6.13964	940.6
6.14116	930.6
6.14269	883.3
6.14422	924.2
6.14575	911.1
6.14727	869.8
6.14880	899.5
6.15033	887.5
6.15185	887.0
6.15338	893.0
6.15491	898.2
6.15644	900.8
6.15796	893.5
6.15949	861.7
6.16102	869.9
6.16255	876.8
6.16407	883.2
6.16560	880.6
6.16713	881.4
6.16865	904.7
6.17018	872.8
6.17171	884.3
6.17324	888.3
6.17476	872.3
6.17629	865.2
6.17782	873.3
6.17935	880.6
6.18087	871.0
6.18240	864.3
6.18393	856.1
6.18545	831.4
6.18698	872.4
6.18851	826.8
6.19004	857.6
6.19156	849.6
6.19309	854.4
6.19462	847.3
6.19615	858.2
6.19767	857.3
6.19920	849.8
6.20073	865.6
6.20225	856.9
6.20378	845.0
6.20531	836.8
6.20684	838.5
6.20836	836.8
6.20989	852.5
6.21142	831.2
6.21295	825.5
6.21447	834.8
6.21600	818.0
6.21753	817.9
6.21905	842.8
6.22058	829.5
6.22211	851.4
6.22364	836.6
6.22516	832.3
6.22669	825.9
6.22822	822.8
6.22975	842.6
6.23127	843.9
6.23280	829.7
6.23433	847.3
6.23585	820.6
6.23738	829.8
6.23891	828.5
6.24044	805.6
6.24196	821.0
6.24349	814.6
6.24502	823.6
6.24655	824.9
6.24807	815.3
6.24960	799.2
6.25113	810.5
6.25265	830.2
6.25418	812.4
6.25571	824.4
6.25724	812.4
6.25876	807.8
6.26029	809.1
6.26182	824.8
6.26335	794.6
6.26487	791.8
6.26640	823.6
6.26793	793.6
6.26945	809.7
6.27098	799.9
6.27251	794.5
6.27404	802.3
6.27556	807.4
6.27709	810.8
6.27862	809.4
6.28015	796.1
6.28167	783.4
6.28320	807.2
6.28473	799.9
6.28625	817.6
6.28778	798.6
6.28931	818.2
6.29084	777.4
6.29236	766.4
6.29389	813.0
6.29542	800.4
6.29695	799.3
6.29847	784.4
6.30000	797.5
6.30153	793.4
6.30305	811.2
6.30458	781.6
6.30611	800.4
6.30764	788.2
6.30916	787.1
6.31069	783.3
6.31222	786.1
6.31375	807.9
6.31527	800.4
6.31680	767.6
6.31833	809.3
6.31985	772.9
6.32138	784.3
6.32291	779.6
6.32444	783.4
6.32596	796.0
6.32749	794.5
6.32902	775.5
6.33055	799.4
6.33207	779.4
6.33360	779.8
6.33513	768.0
6.33665	774.8
6.33818	798.3
6.33971	778.6
6.34124	755.7
6.34276	771.8
6.34429	775.2
6.34582	772.1
6.34735	772.7
6.34887	793.3
6.35040	771.1
6.35193	780.3
6.35345	793.6
6.35498	769.9
6.35651	763.3
6.35804	765.8
6.35956	756.6
6.36109	789.3
6.36262	777.3
6.36415	789.7
6.36567	776.9
6.36720	767.1
6.36873	769.3
6.37025	787.2
6.37178	780.1
6.37331	774.8
6.37484	781.3
6.37636	787.2
6.37789	765.4
6.37942	766.4
6.38095	774.9
6.38247	767.6
6.38400	753.8
6.38553	803.6
6.38705	754.8
6.38858	764.2
6.39011	762.8
6.39164	755.6
6.39316	779.3
6.39469	776.2
6.39622	771.3
6.39775	767.8
6.39927	762.5
6.40080	777.4
6.40233	767.7
6.40385	771.3
6.40538	751.4
6.40691	784.7
6.40844	779.0
6.40996	764.8
6.41149	755.7
6.41302	759.3
6.41455	774.6
6.41607	760.3
6.41760	757.6
6.41913	780.3
6.42065	750.4
6.42218	764.1
6.42371	755.6
6.42524	772.8
6.42676	753.0
6.42829	770.3
6.42982	747.7
6.43135	770.9
6.43287	757.9
6.43440	790.8
6.43593	765.9
6.43745	757.5
6.43898	771.7
6.44051	749.9
6.44204	749.4
6.44356	752.1
6.44509	750.5
6.44662	747.7
6.44815	767.9
6.44967	751.0
6.45120	775.3
6.45273	770.1
6.45425	771.3
6.45578	777.1
6.45731	746.0
6.45884	750.5
6.46036	788.4
6.46189	767.0
6.46342	760.4
6.46495	766.2
6.46647	738.0
6.46800	765.1
6.46953	767.4
6.47105	759.6
6.47258	763.3
6.47411	755.6
6.47564	772.8
6.47716	758.5
6.47869	746.7
6.48022	752.5
6.48175	747.5
6.48327	766.4
6.48480	762.6
6.48633	746.2
6.48785	764.0
6.48938	757.8
6.49091	756.1
6.49244	740.1
6.49396	756.0
6.49549	739.6
6.49702	737.4
6.49855	766.6
6.50007	761.7
6.50160	762.9
6.50313	736.0
6.50465	762.4
6.50618	746.8
6.50771	744.9
6.50924	750.4
6.51076	757.1
6.51229	758.0
6.51382	744.8
6.51535	741.0
6.51687	738.8
6.51840	746.7
6.51993	750.2
6.52145	750.5
6.52298	747.5
6.52451	747.2
6.52604	733.1
6.52756	748.6
6.52909	749.0
6.53062	749.7
6.53215	737.4
6.53367	747.5
6.53520	746.7
6.53673	753.4
6.53825	758.1
6.53978	736.3
6.54131	743.7
6.54284	753.1
6.54436	749.5
6.54589	746.0
6.54742	747.7
6.54895	745.2
6.55047	758.1
6.55200	760.9
6.55353	748.1
6.55505	752.8
6.55658	753.2
6.55811	744.9
6.55964	755.6
6.56116	753.6
6.56269	750.7
6.56422	745.2
6.56575	766.3
6.56727	739.9
6.56880	734.1
6.57033	767.6
6.57185	727.6
6.57338	742.8
6.57491	750.3
6.57644	769.4
6.57796	746.3
6.57949	758.5
6.58102	753.4
6.58255	748.9
6.58407	753.9
6.58560	728.0
6.58713	739.0
6.58865	725.1
6.59018	742.1
6.59171	755.3
6.59324	736.7
6.59476	744.9
6.59629	728.1
6.59782	743.6
6.59935	757.1
6.60087	730.3
6.60240	735.5
6.60393	730.7
6.60545	728.1
6.60698	729.2
6.60851	724.8
6.61004	759.8
6.61156	741.3
6.61309	729.7
6.61462	745.5
6.61615	753.4
6.61767	738.0
6.61920	771.1
6.62073	759.0
6.62225	772.3
6.62378	797.2
6.62531	788.2
6.62684	787.9
6.62836	801.2
6.62989	824.6
6.63142	830.5
6.63295	865.6
6.63447	856.0
6.63600	882.1
6.63753	887.5
6.63905	867.9
6.64058	903.3
6.64211	929.0
6.64364	940.4
6.64516	906.5
6.64669	927.9
6.64822	931.7
6.64975	929.2
6.65127	963.4
6.65280	961.8
6.65433	974.8
6.65585	967.4
6.65738	969.6
6.65891	1012.1
6.66044	1037.8
6.66196	1021.7
6.66349	1040.8
6.66502	1076.6
6.66655	1055.7
6.66807	1116.4
6.66960	1091.7
6.67113	1088.8
6.67265	1161.0
6.67418	1143.6
6.67571	1171.6
6.67724	1166.2
6.67876	1188.4
6.68029	1208.1
6.68182	1188.3
6.68335	1233.0
6.68487	1223.4
6.68640	1242.7
6.68793	1279.3
6.68945	1261.9
6.69098	1310.4
6.69251	1331.3
6.69404	1344.7
6.69556	1336.2
6.69709	1358.1
6.69862	1381.4
6.70015	1387.4
6.70167	1347.5
6.70320	1386.4
6.70473	1399.6
6.70625	1376.6
6.70778	1399.3
6.70931	1410.3
6.71084	1413.9
6.71236	1434.0
6.71389	1422.9
6.71542	1383.9
6.71695	1422.6
6.71847	1410.0
6.72000	1445.0
6.72153	1410.9
6.72305	1432.7
6.72458	1388.4
6.72611	1421.3
6.72764	1470.4
6.72916	1437.0
6.73069	1467.2
6.73222	1483.4
6.73375	1455.8
6.73527	1422.6
6.73680	1434.8
6.73833	1447.9
6.73985	1514.8
6.74138	1520.3
6.74291	1527.9
6.74444	1497.3
6.74596	1503.8
6.74749	1473.8
6.74902	1499.9
6.75055	1512.1
6.75207	1517.6
6.75360	1538.7
6.75513	1514.6
6.75665	1552.7
6.75818	1532.3
6.75971	1547.0
6.76124	1533.3
6.76276	1494.3
6.76429	1494.8
6.76582	1513.4
6.76735	1532.2
6.76887	1484.8
6.77040	1520.7
6.77193	1498.3
6.77345	1543.9
6.77498	1486.1
6.77651	1509.7
6.77804	1516.7
6.77956	1488.9
6.78109	1465.9
6.78262	1506.1
6.78415	1481.7
6.78567	1484.2
6.78720	1524.1
6.78873	1423.9
6.79025	1406.8
6.79178	1454.5
6.79331	1468.4
6.79484	1454.4
6.79636	1489.7
6.79789	1422.4
6.79942	1429.4
6.80095	1500.3
6.80247	1467.6
6.80400	1464.3
6.80553	1473.3
6.80705	1475.6
6.80858	1405.0
6.81011	1435.0
6.81164	1419.8
6.81316	1417.3
6.81469	1385.1
6.81622	1404.3
6.81775	1411.3
6.81927	1384.6
6.82080	1392.9
6.82233	1370.4
6.82385	1366.7
6.82538	1335.8
6.82691	1360.6
6.82844	1352.0
6.82996	1383.8
6.83149	1366.8
6.83302	1324.7
6.83455	1309.3
6.83607	1327.2
6.83760	1334.2
6.83913	1303.4
6.84065	1345.3
6.84218	1339.4
6.84371	1328.9
6.84524	1293.4
6.84676	1330.3
6.84829	1332.4
6.84982	1306.5
6.85135	1292.4
6.85287	1272.1
6.85440	1297.7
6.85593	1298.7
6.85745	1295.8
6.85898	1298.4
6.86051	1329.6
6.86204	1291.6
6.86356	1260.7
6.86509	1252.8
6.86662	1232.8
6.86815	1289.1
6.86967	1264.4
6.87120	1281.5
6.87273	1299.1
6.87425	1290.3
6.87578	1247.9
6.87731	1309.6
6.87884	1252.0
6.88036	1282.3
6.88189	1263.2
6.88342	1289.0
6.88495	1235.0
6.88647	1234.8
6.88800	1267.0
6.88953	1246.8
6.89105	1244.5
6.89258	1243.3
6.89411	1240.7
6.89564	1221.2
6.89716	1250.1
6.89869	1229.2
6.90022	1221.3
6.90175	1224.1
6.90327	1194.1
6.90480	1230.4
6.90633	1227.1
6.90785	1195.6
6.90938	1201.7
6.91091	1184.7
6.91244	1161.1
6.91396	1187.2
6.91549	1193.5
6.91702	1158.6
6.91855	1173.2
6.92007	1114.8
6.92160	1147.3
6.92313	1132.8
6.92465	1119.7
6.92618	1148.9
6.92771	1148.2
6.92924	1156.0
6.93076	1095.0
6.93229	1145.1
6.93382	1125.4
6.93535	1144.4
6.93687	1152.4
6.93840	1125.1
6.93993	1143.9
6.94145	1115.9
6.94298	1146.7
6.94451	1121.2
6.94604	1155.3
6.94756	1149.7
6.94909	1142.2
6.95062	1141.5
6.95215	1120.1
6.95367	1125.2
6.95520	1134.9
6.95673	1120.8
6.95825	1098.8
6.95978	1119.2
6.96131	1116.6
6.96284	1109.3
6.96436	1081.2
6.96589	1101.0
6.96742	1060.2
6.96895	1065.6
6.97047	1085.8
6.97200	1109.5
6.97353	1079.7
6.97505	1050.8
6.97658	1082.5
6.97811	1064.3
6.97964	1031.1
6.98116	1056.0
6.98269	1055.1
6.98422	1043.3
6.98575	1060.4
6.98727	1054.8
6.98880	1025.8
6.99033	1050.6
6.99185	1063.0
6.99338	1013.6
6.99491	1029.5
6.99644	1011.1
6.99796	1016.8
6.99949	1030.1
7.00102	1005.3
7.00255	1013.5
7.00407	999.2
7.00560	1018.7
7.00713	993.5
7.00865	1014.8
7.01018	983.5
7.01171	1016.5
7.01324	1001.3
7.01476	967.4
7.01629	986.5
7.01782	992.8
7.01935	988.4
7.02087	942.6
7.02240	980.1
7.02393	972.7
7.02545	992.9
7.02698	978.8
7.02851	948.0
7.03004	958.4
7.03156	963.5
7.03309	971.6
7.03462	955.4
7.03615	978.0
7.03767	940.5
7.03920	948.4
7.04073	939.4
7.04225	928.5
7.04378	941.8
7.04531	944.5
7.04684	981.2
7.04836	929.6
7.04989	951.9
7.05142	935.0
7.05295	931.9
7.05447	939.0
7.05600	980.3
7.05753	912.3
7.05905	958.1
7.06058	951.4
7.06211	933.7
7.06364	930.9
7.06516	940.0
7.06669	914.4
7.06822	919.3
7.06975	923.3
7.07127	942.4
7.07280	916.6
7.07433	935.4
7.07585	928.4
7.07738	898.3
7.07891	922.0
7.08044	920.9
7.08196	909.5
7.08349	901.2
7.08502	913.6
7.08655	902.5
7.08807	914.8
7.08960	909.5
7.09113	898.4
7.09265	918.6
7.09418	914.5
7.09571	878.3
7.09724	902.5
7.09876	925.1
7.10029	911.9
7.10182	906.1
7.10335	894.6
7.10487	910.8
7.10640	877.3
7.10793	901.0
7.10945	905.4
7.11098	903.1
7.11251	876.4
7.11404	875.8
7.11556	909.5
7.11709	912.1
7.11862	896.3
7.12015	888.0
7.12167	893.5
7.12320	896.3
7.12473	894.0
7.12625	885.1
7.12778	881.5
7.12931	896.6
7.13084	896.1
7.13236	874.2
7.13389	882.6
7.13542	886.1
7.13695	868.8
7.13847	920.8
7.14000	870.8
7.14153	902.8
7.14305	881.9
7.14458	854.6
7.14611	873.9
7.14764	853.1
7.14916	881.3
7.15069	891.0
7.15222	855.9
7.15375	878.7
7.15527	886.9
7.15680	917.8
7.15833	892.6
7.15985	878.0
7.16138	895.4
7.16291	881.3
7.16444	875.6
7.16596	851.2
7.16749	876.5
7.16902	893.3
7.17055	858.1
7.17207	859.5
7.17360	885.9
7.17513	845.2
7.17665	862.7
7.17818	846.3
7.17971	869.2
7.18124	833.0
7.18276	863.6
7.18429	860.7
7.18582	857.8
7.18735	864.0
7.18887	873.7
7.19040	863.0
7.19193	851.5
7.19345	850.6
7.19498	882.5
7.19651	873.2
7.19804	849.5
7.19956	847.3
7.20109	819.9
7.20262	857.8
7.20415	816.7
7.20567	851.3
7.20720	855.0
7.20873	879.7
7.21025	850.0
7.21178	846.8
7.21331	843.5
7.21484	841.9
7.21636	836.8
7.21789	876.0
7.21942	845.9
7.22095	814.0
7.22247	836.5
7.22400	835.6
7.22553	819.4
7.22705	849.0
7.22858	842.4
7.23011	825.8
7.23164	830.5
7.23316	845.1
7.23469	834.0
7.23622	837.7
7.23775	838.9
7.23927	844.4
7.24080	839.9
7.24233	830.8
7.24385	835.8
7.24538	838.2
7.24691	835.3
7.24844	822.0
7.24996	824.4
7.25149	825.6
7.25302	849.3
7.25455	812.7
7.25607	823.1
7.25760	830.8
7.25913	833.0
7.26065	832.6
7.26218	822.1
7.26371	809.3
7.26524	815.4
7.26676	799.8
7.26829	824.5
7.26982	815.5
7.27135	857.3
7.27287	825.5
7.27440	780.8
7.27593	830.9
7.27745	817.4
7.27898	821.9
7.28051	824.6
7.28204	815.0
7.28356	825.0
7.28509	790.2
7.28662	825.1
7.28815	799.5
7.28967	798.8
7.29120	791.8
7.29273	803.2
7.29425	811.7
7.29578	816.7
7.29731	808.3
7.29884	807.7
7.30036	804.6
7.30189	804.2
7.30342	800.8
7.30495	788.5
7.30647	799.8
7.30800	816.9
7.30953	790.3
7.31105	800.7
7.31258	775.9
7.31411	807.1
7.31564	797.5
7.31716	785.9
7.31869	805.0
7.32022	809.9
7.32175	818.9
7.32327	800.5
7.32480	786.1
7.32633	816.4
7.32785	808.1
7.32938	822.8
7.33091	827.8
7.33244	815.9
7.33396	787.6
7.33549	803.4
7.33702	801.9
7.33855	801.8
7.34007	790.1
7.34160	783.9
7.34313	787.6
7.34465	796.1
7.34618	772.8
7.34771	766.8
7.34924	756.9
7.35076	779.8
7.35229	784.3
7.35382	781.5
7.35535	770.5
7.35687	786.1
7.35840	802.7
7.35993	795.6
7.36145	766.5
7.36298	794.4
7.36451	787.6
7.36604	784.5
7.36756	761.7
7.36909	811.1
7.37062	770.0
7.37215	770.3
7.37367	776.7
7.37520	760.7
7.37673	774.9
7.37825	786.0
7.37978	768.1
7.38131	788.9
7.38284	788.5
7.38436	758.5
7.38589	777.7
7.38742	790.8
7.38895	764.7
7.39047	759.2
7.39200	771.1
7.39353	778.1
7.39505	779.8
7.39658	792.4
7.39811	772.5
7.39964	758.9
7.40116	773.8
7.40269	771.7
7.40422	776.3
7.40575	763.2
7.40727	788.2
7.40880	765.5
7.41033	772.0
7.41185	752.9
7.41338	781.2
7.41491	780.7
7.41644	777.4
7.41796	767.2
7.41949	775.5
7.42102	780.5
7.42255	759.8
7.42407	764.2
7.42560	783.8
7.42713	790.8
7.42865	783.6
7.43018	778.0
7.43171	782.2
7.43324	761.9
7.43476	756.5
7.43629	783.3
7.43782	770.7
7.43935	768.6
7.44087	767.8
7.44240	770.0
7.44393	763.8
7.44545	772.2
7.44698	753.0
7.44851	801.6
7.45004	777.8
7.45156	778.3
7.45309	782.2
7.45462	778.5
7.45615	763.4
7.45767	767.8
7.45920	778.7
7.46073	781.4
7.46225	796.4
7.46378	792.8
7.46531	797.2
7.46684	790.7
7.46836	787.3
7.46989	806.8
7.47142	819.1
7.47295	834.0
7.47447	814.8
7.47600	827.1
7.47753	830.8
7.47905	850.1
7.48058	855.2
7.48211	872.3
7.48364	879.2
7.48516	873.4
7.48669	885.7
7.48822	902.1
7.48975	905.8
7.49127	900.4
7.49280	927.6
7.49433	907.8
7.49585	929.9
7.49738	936.4
7.49891	921.3
7.50044	925.3
7.50196	952.3
7.50349	946.7
7.50502	944.7
7.50655	986.2
7.50807	1009.2
7.50960	992.7
7.51113	990.1
7.51265	1043.6
7.51418	1043.4
7.51571	1044.3
7.51724	998.3
7.51876	1062.3
7.52029	1075.4
7.52182	1060.6
7.52335	1090.3
7.52487	1129.6
7.52640	1100.0
7.52793	1079.1
7.52945	1127.0
7.53098	1158.6
7.53251	1164.6
7.53404	1128.1
7.53556	1180.2
7.53709	1136.8
7.53862	1182.6
7.54015	1206.5
7.54167	1209.3
7.54320	1210.0
7.54473	1222.8
7.54625	1202.8
7.54778	1209.5
7.54931	1214.2
7.55084	1218.3
7.55236	1237.0
7.55389	1240.2
7.55542	1249.7
7.55695	1280.5
7.55847	1283.5
7.56000	1306.5
7.56153	1271.9
7.56305	1317.1
7.56458	1269.0
7.56611	1249.9
7.56764	1300.6
7.56916	1290.1
7.57069	1318.9
7.57222	1295.1
7.57375	1319.9
7.57527	1314.7
7.57680	1306.8
7.57833	1334.8
7.57985	1347.4
7.58138	1320.4
7.58291	1305.9
7.58444	1355.2
7.58596	1353.7
7.58749	1346.4
7.58902	1316.2
7.59055	1312.2
7.59207	1315.6
7.59360	1299.0
7.59513	1335.0
7.59665	1335.7
7.59818	1318.3
7.59971	1303.1
7.60124	1339.7
7.60276	1336.6
7.60429	1355.1
7.60582	1321.7
7.60735	1317.3
7.60887	1307.3
7.61040	1334.8
7.61193	1307.3
7.61345	1328.0
7.61498	1327.5
7.61651	1344.8
7.61804	1333.2
7.61956	1324.2
7.62109	1288.8
7.62262	1307.2
7.62415	1323.2
7.62567	1256.5
7.62720	1346.3
7.62873	1278.0
7.63025	1271.1
7.63178	1299.3
7.63331	1281.7
7.63484	1268.3
 